#Wave		#Intensity
1483.837891	6194.852051
1482.740234	6199.403809
1481.640625	6259.658203
1480.542969	6288.039551
1479.443359	6261.821777
1478.343750	6033.218262
1477.244141	6252.616699
1476.144531	6140.037598
1475.044922	6252.510254
1473.943359	6378.574707
1472.843750	6234.229004
1471.744141	6248.944824
1470.642578	6043.360352
1469.541016	6203.429199
1468.439453	6199.980957
1467.339844	6251.009766
1466.236328	6179.473633
1465.134766	6328.051270
1464.033203	6467.498535
1462.931641	6214.516602
1461.828125	6186.127441
1460.726563	6250.705078
1459.623047	6179.250977
1458.519531	6372.987793
1457.416016	6294.740723
1456.312500	6350.187012
1455.208984	6222.142578
1454.105469	6372.697266
1453.001953	6183.562988
1451.896484	6257.099609
1450.792969	6330.608887
1449.687500	6281.892090
1448.582031	6095.181152
1447.478516	6304.403809
1446.373047	6167.515625
1445.267578	6254.540527
1444.160156	6382.226563
1443.054688	6329.035156
1441.949219	6273.604004
1440.841797	6374.100586
1439.736328	6298.350098
1438.628906	6360.407227
1437.521484	6551.160645
1436.414063	6443.811035
1435.306641	6555.468262
1434.199219	6312.740234
1433.091797	6352.171387
1431.982422	6278.781738
1430.875000	6534.750977
1429.765625	6391.441406
1428.658203	6462.396484
1427.548828	6409.331543
1426.439453	6457.716797
1425.330078	6397.912109
1424.220703	6462.053223
1423.111328	6472.105469
1422.000000	6396.565430
1420.890625	6440.404297
1419.781250	6304.109375
1418.669922	6397.472656
1417.558594	6535.812988
1416.447266	6626.847656
1415.335938	6560.363281
1414.224609	6484.906738
1413.113281	6492.688965
1412.001953	6446.504395
1410.890625	6436.306152
1409.777344	6428.359863
1408.666016	6355.246094
1407.552734	6266.431641
1406.439453	6296.710938
1405.326172	6311.256348
1404.212891	6240.464844
1403.099609	6178.680664
1401.986328	6357.106445
1400.871094	6254.925781
1399.757813	6260.490234
1398.642578	6115.739746
1397.529297	6134.786621
1396.414063	6043.937012
1395.298828	6130.257324
1394.183594	6223.270996
1393.068359	6069.696289
1391.953125	6073.047852
1390.837891	6105.524902
1389.720703	6025.982910
1388.605469	6109.970703
1387.488281	6010.303711
1386.373047	6060.680176
1385.255859	6140.137207
1384.138672	6031.568359
1383.021484	6153.517090
1381.904297	6188.168457
1380.785156	6095.308594
1379.667969	6210.468262
1378.550781	5994.660156
1377.431641	6192.511719
1376.312500	6153.363770
1375.195313	6167.863770
1374.076172	6115.329102
1372.957031	6149.936523
1371.837891	6133.160645
1370.716797	6087.360840
1369.597656	6115.255859
1368.478516	6125.282227
1367.357422	6039.336426
1366.238281	6129.704590
1365.117188	6110.719727
1363.996094	6093.973145
1362.875000	6061.620605
1361.753906	6221.040527
1360.632813	6242.181152
1359.511719	6122.891113
1358.388672	6195.297852
1357.267578	6158.500977
1356.144531	6079.391113
1355.021484	6138.401855
1353.900391	6152.854004
1352.777344	6091.600586
1351.654297	6384.311523
1350.531250	6325.263672
1349.406250	6195.030273
1348.283203	6149.388184
1347.160156	6210.534180
1346.035156	6218.281738
1344.910156	6310.521973
1343.787109	6287.123535
1342.662109	6125.922852
1341.537109	6260.354004
1340.412109	6076.998047
1339.287109	6155.850098
1338.160156	6410.141602
1337.035156	6184.666016
1335.908203	6241.251465
1334.783203	6240.098633
1333.656250	6287.774902
1332.529297	6395.348145
1331.402344	6167.864746
1330.275391	6348.622559
1329.148438	6371.847168
1328.021484	6208.798828
1326.894531	6274.164063
1325.765625	6299.605469
1324.638672	6369.361816
1323.509766	6303.929199
1322.380859	6207.504883
1321.251953	6423.427734
1320.123047	6364.664551
1318.994141	6241.712402
1317.865234	6225.065918
1316.736328	6252.691895
1315.605469	6207.280762
1314.476563	6330.038086
1313.345703	6362.053223
1312.214844	6252.507324
1311.083984	6370.765625
1309.953125	6281.156250
1308.822266	6226.947754
1307.691406	6223.590332
1306.560547	6262.218262
1305.429688	6420.132813
1304.296875	6224.570801
1303.166016	6247.717773
1302.033203	6253.191406
1300.900391	6165.942383
1299.767578	6231.024414
1298.634766	6212.222656
1297.501953	6224.317871
1296.369141	6194.494629
1295.234375	6129.391602
1294.101563	6159.136719
1292.966797	6270.448242
1291.833984	6218.593750
1290.699219	6274.753418
1289.564453	6145.791504
1288.429688	6151.270508
1287.294922	6209.613770
1286.160156	6124.782227
1285.025391	6167.694824
1283.888672	6245.816895
1282.753906	6125.806152
1281.617188	6137.884277
1280.480469	6224.769531
1279.343750	6254.424316
1278.208984	6134.499512
1277.070313	6219.138184
1275.933594	6187.212891
1274.796875	5939.863281
1273.660156	6061.854980
1272.521484	6120.073730
1271.384766	6044.247559
1270.246094	6144.185059
1269.107422	6110.111328
1267.968750	6119.968262
1266.830078	6077.129395
1265.691406	6209.913086
1264.552734	6164.878418
1263.414063	6086.945801
1262.273438	6263.531738
1261.134766	6093.483398
1259.994141	6232.720703
1258.853516	6089.052246
1257.712891	6138.355957
1256.572266	6259.972656
1255.431641	6217.185059
1254.291016	6226.998535
1253.150391	6155.753418
1252.007813	6237.852539
1250.867188	6087.796875
1249.724609	6255.266602
1248.582031	6236.605469
1247.441406	6316.439941
1246.298828	6310.903320
1245.156250	6248.484375
1244.011719	6251.711914
1242.869141	6423.340332
1241.726563	6306.268555
1240.582031	6173.936035
1239.439453	6284.280273
1238.294922	6300.609375
1237.150391	6373.743652
1236.005859	6285.187988
1234.861328	6308.060059
1233.716797	6389.887207
1232.572266	6336.311523
1231.427734	6243.460938
1230.281250	6384.185059
1229.136719	6540.132813
1227.990234	6384.022461
1226.843750	6371.942871
1225.697266	6575.789063
1224.550781	6450.286133
1223.404297	6416.397949
1222.257813	6506.772461
1221.111328	6451.091797
1219.962891	6558.857910
1218.816406	6468.330078
1217.667969	6519.419434
1216.519531	6675.025391
1215.373047	6523.557129
1214.224609	6600.731934
1213.074219	6695.291016
1211.925781	6604.835938
1210.777344	6592.743652
1209.628906	6726.409180
1208.478516	6642.522461
1207.330078	6717.414551
1206.179688	6685.741211
1205.029297	6760.597168
1203.878906	6887.587402
1202.728516	6777.670410
1201.578125	6811.187500
1200.427734	6701.324707
1199.275391	6795.653809
1198.125000	6759.662598
1196.972656	6804.012207
1195.822266	6922.146484
1194.669922	6847.086426
1193.517578	6891.395020
1192.365234	6807.689941
1191.212891	6834.636230
1190.058594	6922.294434
1188.906250	7025.097656
1187.753906	7017.302734
1186.599609	6846.952637
1185.445313	6884.700684
1184.292969	6933.268066
1183.138672	7051.137207
1181.984375	7132.143066
1180.830078	7152.486328
1179.673828	7016.937988
1178.519531	7091.410645
1177.365234	7100.927734
1176.208984	7101.785645
1175.054688	7282.210449
1173.898438	7209.490234
1172.742188	7162.748047
1171.585938	7202.513672
1170.429688	7170.922363
1169.273438	7407.365234
1168.115234	7332.525879
1166.958984	7249.071289
1165.800781	7409.758301
1164.644531	7397.595215
1163.486328	7245.070313
1162.328125	7388.395508
1161.169922	7376.242188
1160.011719	7601.505371
1158.853516	7615.211426
1157.695313	7417.477051
1156.535156	7573.580078
1155.376953	7423.373047
1154.216797	7665.668945
1153.058594	7575.864746
1151.898438	7716.733398
1150.738281	7741.173828
1149.578125	7653.559082
1148.417969	7740.476563
1147.255859	7883.363770
1146.095703	7821.612305
1144.933594	7994.574707
1143.773438	7934.978027
1142.611328	7957.191406
1141.449219	8063.321777
1140.287109	8044.623535
1139.125000	8309.882813
1137.962891	8005.095215
1136.800781	8246.609375
1135.638672	8210.689453
1134.474609	8424.131836
1133.312500	8407.534180
1132.148438	8455.405273
1130.984375	8299.163086
1129.820313	8441.545898
1128.656250	8659.041992
1127.492188	8502.847656
1126.328125	8754.599609
1125.162109	8752.983398
1123.998047	8714.886719
1122.832031	8704.695313
1121.667969	8827.510742
1120.501953	9012.478516
1119.335938	9004.381836
1118.169922	9137.791992
1117.003906	9058.933594
1115.837891	9059.404297
1114.669922	9235.585938
1113.503906	9163.178711
1112.335938	9217.178711
1111.169922	9485.322266
1110.001953	9537.100586
1108.833984	9616.690430
1107.666016	9694.110352
1106.498047	9553.213867
1105.330078	9733.319336
1104.160156	9680.177734
1102.992188	9896.551758
1101.822266	9952.460938
1100.654297	9895.029297
1099.484375	10038.561523
1098.314453	10179.902344
1097.144531	10259.220703
1095.974609	10135.541992
1094.804688	10317.371094
1093.632813	10392.346680
1092.462891	10471.565430
1091.291016	10473.896484
1090.121094	10514.647461
1088.949219	10634.344727
1087.777344	10800.940430
1086.605469	10877.873047
1085.433594	10828.932617
1084.261719	10952.747070
1083.087891	11036.002930
1081.916016	10912.447266
1080.742188	11157.663086
1079.570313	11283.452148
1078.396484	11477.372070
1077.222656	11279.268555
1076.048828	11415.612305
1074.875000	11473.117188
1073.701172	11647.695313
1072.525391	11545.490234
1071.351563	11820.013672
1070.175781	11788.031250
1069.001953	11822.008789
1067.826172	11813.433594
1066.650391	12149.373047
1065.474609	12053.562500
1064.298828	12100.218750
1063.123047	12418.911133
1061.945313	12325.227539
1060.769531	12533.277344
1059.591797	12513.955078
1058.416016	12700.652344
1057.238281	12808.711914
1056.060547	12732.023438
1054.882813	12808.195313
1053.705078	12799.446289
1052.525391	12941.354492
1051.347656	13206.253906
1050.169922	13212.282227
1048.990234	13455.824219
1047.810547	13436.358398
1046.632813	13614.049805
1045.453125	13446.193359
1044.273438	13634.411133
1043.093750	13659.415039
1041.912109	13762.788086
1040.732422	13611.968750
1039.550781	14018.119141
1038.371094	13911.766602
1037.189453	14152.600586
1036.007813	14285.410156
1034.826172	14130.398438
1033.644531	14214.501953
1032.462891	14209.736328
1031.281250	14697.714844
1030.099609	14671.715820
1028.916016	14525.227539
1027.734375	14423.177734
1026.550781	14805.088867
1025.367188	14827.679688
1024.183594	14890.396484
1023.000000	14712.319336
1021.816406	14891.171875
1020.632813	14987.618164
1019.447266	15162.128906
1018.263672	15136.081055
1017.078125	15122.703125
1015.892578	15341.389648
1014.707031	15277.354492
1013.521484	15236.538086
1012.335938	15233.689453
1011.150391	15338.352539
1009.964844	15299.653320
1008.777344	15524.377930
1007.591797	15407.701172
1006.404297	15499.610352
1005.218750	15414.571289
1004.031250	15628.574219
1002.843750	15436.168945
1001.656250	15770.066406
1000.466797	15621.900391
999.279297	15654.744141
998.091797	15769.620117
996.902344	15657.291016
995.712891	15627.018555
994.525391	15899.523438
993.335938	15671.611328
992.146484	15817.898438
990.957031	15556.462891
989.765625	15727.925781
988.576172	15687.164063
987.384766	15703.122070
986.195313	15851.360352
985.003906	15581.760742
983.812500	15864.300781
982.621094	15798.363281
981.429688	15547.805664
980.238281	15597.331055
979.046875	15552.451172
977.855469	15639.701172
976.662109	15724.821289
975.470703	15573.031250
974.277344	15635.075195
973.083984	15699.189453
971.890625	15604.053711
970.697266	15511.046875
969.503906	15562.580078
968.308594	15785.791016
967.115234	15686.518555
965.919922	15505.652344
964.726563	15712.002930
963.531250	15644.182617
962.335938	15390.206055
961.140625	15596.458984
959.945313	15562.152344
958.750000	15509.041992
957.552734	15432.957031
956.357422	15586.792969
955.160156	15519.078125
953.964844	15453.476563
952.767578	15640.638672
951.570313	15384.995117
950.373047	15411.323242
949.175781	15437.640625
947.978516	15470.208008
946.779297	15567.453125
945.582031	15405.947266
944.382813	15423.896484
943.183594	15439.752930
941.986328	15605.738281
940.787109	15475.615234
939.585938	15578.995117
938.386719	15569.797852
937.187500	15514.762695
935.988281	15501.411133
934.787109	15585.958984
933.585938	15422.661133
932.386719	15498.860352
931.185547	15346.046875
929.984375	15572.081055
928.783203	15496.301758
927.580078	15285.318359
926.378906	15128.496094
925.175781	15327.360352
923.974609	15559.416992
922.771484	15286.209961
921.568359	15141.973633
920.365234	15107.930664
919.162109	15265.049805
917.958984	14911.085938
916.755859	15334.029297
915.550781	15140.077148
914.347656	15108.137695
913.142578	15179.997070
911.939453	15114.853516
910.734375	14860.912109
909.529297	15107.038086
908.324219	15153.949219
907.117188	14856.591797
905.912109	14874.501953
904.707031	14788.754883
903.500000	14796.306641
902.292969	14567.622070
901.085938	14670.513672
899.878906	14557.937500
898.671875	14306.644531
897.464844	14428.160156
896.257813	14361.236328
895.050781	13959.022461
893.841797	14417.851563
892.632813	13951.636719
891.425781	13872.438477
890.216797	13849.113281
889.007813	13904.374023
887.798828	13825.227539
886.587891	13700.633789
885.378906	13722.821289
884.169922	13714.005859
882.958984	13463.481445
881.748047	13454.715820
880.539063	13365.413086
879.328125	13272.014648
878.117188	13230.258789
876.904297	13174.070313
875.693359	13002.344727
874.482422	12849.251953
873.269531	13013.878906
872.056641	12640.168945
870.845703	12759.408203
869.632813	12443.611328
868.419922	12540.167969
867.207031	12550.134766
865.992188	12459.137695
864.779297	12308.434570
863.566406	12351.390625
862.351563	12108.099609
861.136719	12128.428711
859.921875	12165.216797
858.707031	11959.143555
857.492188	11835.453125
856.277344	11829.071289
855.062500	11748.644531
853.845703	11832.763672
852.630859	11742.084961
851.414063	11731.611328
850.197266	11747.858398
848.982422	11673.685547
847.763672	11622.138672
846.546875	11389.851563
845.330078	11313.733398
844.113281	11364.947266
842.894531	11348.394531
841.677734	11352.373047
840.458984	11292.733398
839.240234	11146.944336
838.021484	11179.675781
836.802734	11134.457031
835.583984	11212.288086
834.363281	11162.979492
833.144531	11199.777344
831.923828	11078.761719
830.703125	11134.000977
829.484375	10961.829102
828.263672	10965.863281
827.042969	10986.278320
825.820313	11098.816406
824.599609	10977.954102
823.378906	11012.678711
822.156250	11067.850586
820.933594	11180.283203
819.712891	11004.269531
818.490234	11241.414063
817.267578	10959.134766
816.044922	11001.995117
814.820313	11120.458984
813.597656	11151.008789
812.373047	11103.911133
811.150391	11101.768555
809.925781	11091.457031
808.701172	11254.706055
807.476563	11248.450195
806.251953	11315.673828
805.027344	11466.539063
803.800781	11141.959961
802.576172	11239.761719
801.349609	11213.115234
800.125000	11206.870117
798.898438	11259.748047
797.671875	11573.508789
796.445313	11381.744141
795.216797	11495.681641
793.990234	11369.192383
792.763672	11419.947266
791.535156	11315.920898
790.306641	11450.137695
789.080078	11580.231445
787.851563	11679.747070
786.621094	11492.321289
785.392578	11520.610352
784.164063	11563.125977
782.935547	11566.985352
781.705078	11562.709961
780.474609	11578.763672
779.246094	11485.060547
778.015625	11631.168945
776.785156	11677.671875
775.552734	11738.373047
774.322266	11579.722656
773.091797	11587.626953
771.859375	11717.330078
770.628906	11729.262695
769.396484	11844.680664
768.164063	11590.802734
766.931641	11821.823242
765.699219	11849.947266
764.464844	11569.854492
763.232422	11735.869141
761.998047	11786.286133
760.765625	11865.053711
759.531250	11984.311523
758.296875	11732.820313
757.062500	11746.740234
755.828125	12003.642578
754.593750	11914.251953
753.357422	11915.981445
752.123047	12061.393555
750.886719	11907.294922
749.652344	11955.549805
748.416016	11829.845703
747.179688	11981.223633
745.943359	12059.759766
744.705078	12033.153320
743.468750	11951.989258
742.232422	12085.038086
740.994141	12100.863281
739.755859	12102.542969
738.517578	12088.065430
737.279297	12115.992188
736.041016	12137.851563
734.802734	12177.864258
733.564453	12066.525391
732.324219	12136.796875
731.085938	12088.035156
729.845703	12119.958008
728.605469	12200.255859
727.365234	12213.999023
726.125000	12324.477539
724.884766	12060.112305
723.642578	12241.088867
722.402344	12127.911133
721.160156	12151.719727
719.919922	12264.112305
718.677734	12406.655273
717.435547	12353.911133
716.193359	12347.469727
714.951172	12240.434570
713.707031	12127.405273
712.464844	12207.487305
711.220703	12456.437500
709.976563	12397.708984
708.734375	12168.158203
707.490234	12083.383789
706.246094	12203.574219
705.000000	12161.007813
703.755859	12409.669922
702.511719	12178.329102
701.265625	12473.062500
700.019531	12332.122070
698.773438	12279.534180
697.527344	12265.086914
696.281250	12242.621094
695.035156	12364.566406
693.789063	12131.541016
692.541016	12480.003906
691.294922	12363.301758
690.046875	12370.894531
688.798828	12278.301758
687.550781	12315.956055
686.302734	12255.454102
685.054688	12487.333984
683.806641	12364.756836
682.556641	12588.516602
681.308594	12540.012695
680.058594	12391.483398
678.808594	12517.079102
677.558594	12288.606445
676.308594	12306.187500
675.058594	12435.721680
673.806641	12389.298828
672.556641	12482.791016
671.304688	12652.174805
670.054688	12529.820313
668.802734	12295.662109
667.550781	12684.644531
666.298828	12508.446289
665.044922	12707.596680
663.792969	12695.115234
662.541016	12780.411133
661.287109	12732.008789
660.033203	12729.500977
658.779297	12613.323242
657.525391	12989.661133
656.271484	12606.358398
655.017578	12719.468750
653.763672	12641.241211
652.507813	12658.670898
651.253906	12895.196289
649.998047	12812.995117
648.742188	12844.315430
647.486328	12809.930664
646.230469	12843.227539
644.974609	12856.612305
643.716797	12822.243164
642.460938	12917.177734
641.203125	12761.498047
639.945313	12902.136719
638.687500	12804.168945
637.429688	12901.016602
636.171875	13049.490234
634.914063	13019.098633
633.656250	13097.966797
632.396484	13121.196289
631.136719	12971.671875
629.878906	13129.906250
628.619141	13089.600586
627.359375	13132.653320
626.097656	13074.504883
624.837891	13474.590820
623.578125	13521.505859
622.316406	13459.347656
621.056641	13383.335938
619.794922	13406.454102
618.533203	13814.000977
617.271484	13732.017578
616.009766	13830.324219
614.746094	13791.938477
613.484375	13725.845703
612.220703	13921.096680
610.958984	14056.890625
609.695313	14064.000977
608.431641	14104.743164
607.167969	14026.781250
605.902344	14170.354492
604.638672	14398.894531
603.375000	14415.811523
602.109375	14513.758789
600.843750	14781.615234
599.580078	14585.061523
598.314453	14653.284180
597.046875	14909.101563
595.781250	14957.485352
594.515625	14997.952148
593.248047	15257.494141
591.982422	15100.541992
590.714844	15628.290039
589.447266	15623.217773
588.179688	15594.479492
586.912109	15581.526367
585.644531	15562.664063
584.375000	15681.781250
583.107422	15566.341797
581.837891	15575.074219
580.568359	15755.182617
579.298828	15744.177734
578.029297	15916.302734
576.759766	15897.393555
575.490234	16124.531250
574.218750	16225.629883
572.949219	16013.847656
571.677734	16166.073242
570.406250	16316.269531
569.134766	16267.802734
567.863281	16191.829102
566.591797	16383.206055
565.320313	16438.908203
564.046875	16286.315430
562.775391	16428.445313
561.501953	16584.267578
560.228516	16235.371094
558.955078	16561.970703
557.681641	16633.267578
556.408203	16300.265625
555.134766	16620.767578
553.859375	16560.574219
552.583984	16576.894531
551.310547	16518.693359
550.035156	16723.222656
548.759766	16586.609375
547.484375	16604.867188
546.207031	16813.173828
544.931641	16817.666016
543.654297	16688.972656
542.378906	16673.902344
541.101563	16715.615234
539.824219	16792.542969
538.546875	16814.642578
537.269531	16742.814453
535.990234	16747.308594
534.712891	16804.605469
533.433594	16861.880859
532.156250	16840.929688
530.876953	17160.097656
529.597656	16818.591797
528.318359	17047.755859
527.039063	17175.248047
525.757813	16914.017578
524.478516	17160.599609
523.197266	16987.328125
521.916016	16970.283203
520.634766	17218.654297
519.353516	17191.812500
518.072266	17125.962891
516.791016	17118.652344
515.509766	17150.341797
514.226563	17345.789063
512.943359	17420.302734
511.662109	17430.474609
510.378906	17050.951172
509.095703	17517.039063
507.810547	17425.904297
506.527344	17311.435547
505.244141	17720.732422
503.958984	17450.527344
502.673828	17371.152344
501.388672	17381.312500
500.103516	17494.570313
498.818359	17407.451172
497.533203	17446.761719
496.248047	17443.287109
494.960938	17636.134766
493.675781	17467.429688
492.388672	17405.658203
491.101563	17522.632813
489.814453	17441.451172
488.527344	17538.953125
487.238281	17246.175781
485.951172	17423.261719
484.662109	17332.457031
483.375000	17249.449219
482.085938	17352.707031
480.796875	17219.298828
479.507813	17091.761719
478.218750	16898.355469
476.927734	17296.232422
475.638672	17114.490234
474.347656	17087.828125
473.058594	16722.160156
471.767578	16629.732422
470.476563	16734.859375
469.185547	16834.134766
467.892578	16886.914063
466.601563	16523.583984
465.308594	16617.035156
464.017578	16493.783203
462.724609	16457.615234
461.431641	16618.703125
460.138672	16277.051758
458.845703	16434.244141
457.550781	16436.767578
456.257813	16309.830078
454.962891	16198.396484
453.669922	16270.494141
452.375000	16240.216797
451.080078	16267.871094
449.785156	16328.329102
448.490234	16240.159180
447.193359	16240.781250
445.898438	16316.639648
444.601563	15993.214844
443.304688	15943.747070
442.007813	16191.208008
440.710938	15948.958984
439.414063	15957.344727
438.117188	15884.799805
436.818359	15997.221680
435.521484	15805.279297
434.222656	16035.137695
432.923828	16026.167969
431.625000	15788.135742
430.326172	15965.896484
429.027344	15856.887695
427.728516	15973.001953
426.427734	15892.885742
425.126953	15924.333984
423.828125	15974.995117
422.527344	15850.712891
421.226563	15866.775391
419.925781	15944.316406
418.623047	15689.479492
417.322266	15907.236328
416.019531	15844.539063
414.718750	15870.183594
413.416016	15801.758789
412.113281	15764.068359
410.810547	15664.990234
409.507813	15627.340820
408.203125	15725.885742
406.900391	15569.343750
405.595703	15675.529297
404.291016	15593.817383
402.988281	15487.223633
401.681641	15451.568359
400.376953	15534.702148
399.072266	15405.197266
397.767578	15308.298828
396.460938	15406.727539
395.154297	15145.244141
393.849609	15241.750977
392.542969	15368.833984
391.236328	15130.470703
389.927734	15246.048828
388.621094	15269.789063
387.314453	15161.597656
386.005859	15416.642578
384.697266	15186.148438
383.388672	15259.561523
382.080078	15002.444336
380.771484	15047.213867
379.462891	15189.356445
378.152344	15060.327148
376.843750	15259.677734
375.533203	15258.554688
374.222656	15127.678711
372.912109	15057.902344
371.601563	15014.857422
370.291016	15137.737305
368.980469	15020.333984
367.667969	15207.976563
366.357422	15203.051758
365.044922	14998.052734
363.732422	15048.418945
362.419922	15009.242188
361.107422	15027.211914
359.794922	15001.382813
358.480469	15006.021484
357.167969	14974.496094
355.853516	15003.875000
354.539063	15187.340820
353.224609	15053.084961
351.910156	15055.805664
350.595703	15134.578125
349.281250	15295.060547
347.964844	15050.656250
346.650391	14920.360352
345.333984	14936.402344
344.017578	14965.733398
342.701172	14995.053711
341.384766	15106.004883
340.066406	14985.318359
338.750000	14951.983398
337.431641	14977.487305
336.115234	15025.747070
334.796875	14853.956055
333.478516	14991.353516
332.160156	14840.494141
330.841797	14941.821289
329.521484	14794.822266
328.203125	14736.942383
326.882813	14830.651367
325.564453	14926.217773
324.244141	14783.124023
322.923828	14748.013672
321.601563	14707.238281
320.281250	14899.280273
318.960938	14485.703125
317.638672	14906.637695
316.318359	14549.970703
314.996094	14906.424805
313.673828	14814.613281
312.351563	14652.891602
311.027344	14770.964844
309.705078	14900.330078
308.382813	14833.153320
307.058594	14841.561523
305.734375	14831.080078
304.410156	14864.032227
303.085938	14896.970703
301.761719	15054.469727
300.437500	14921.292969
299.111328	14852.318359
297.787109	14955.028320
296.460938	15191.603516
295.134766	14983.080078
293.808594	15115.868164
292.482422	15139.281250
291.156250	15064.690430
289.830078	15157.817383
288.501953	15186.859375
287.175781	15082.169922
285.847656	15107.449219
284.519531	14901.154297
283.191406	15046.924805
281.863281	15271.679688
280.533203	14995.856445
279.205078	15335.283203
277.876953	15170.523438
276.546875	14994.544922
275.216797	15059.284180
273.886719	15174.750000
272.556641	15233.790039
271.226563	15225.165039
269.894531	15220.300781
268.564453	15059.546875
267.232422	15022.793945
265.900391	15331.511719
264.570313	15225.266602
263.238281	15227.915039
261.904297	15286.853516
260.572266	15325.132813
259.240234	15579.095703
257.906250	15386.644531
256.572266	15458.630859
