#Wave		#Intensity
1483.837891	10503.028320
1482.740234	10462.062500
1481.640625	10671.681641
1480.542969	10863.020508
1479.443359	10710.832031
1478.343750	10554.152344
1477.244141	10652.184570
1476.144531	10709.262695
1475.044922	10695.861328
1473.943359	10605.204102
1472.843750	10525.941406
1471.744141	10621.616211
1470.642578	10817.183594
1469.541016	10665.265625
1468.439453	10604.214844
1467.339844	10658.947266
1466.236328	10523.033203
1465.134766	10759.275391
1464.033203	10718.670898
1462.931641	10621.379883
1461.828125	10728.214844
1460.726563	10558.409180
1459.623047	10692.416992
1458.519531	10558.944336
1457.416016	10779.006836
1456.312500	10742.985352
1455.208984	10663.941406
1454.105469	10985.768555
1453.001953	10725.572266
1451.896484	10700.908203
1450.792969	10750.944336
1449.687500	10778.333008
1448.582031	10771.773438
1447.478516	10891.892578
1446.373047	10756.400391
1445.267578	10876.478516
1444.160156	10899.296875
1443.054688	10653.122070
1441.949219	10741.512695
1440.841797	10811.793945
1439.736328	10924.971680
1438.628906	10918.398438
1437.521484	11040.546875
1436.414063	10932.351563
1435.306641	11034.135742
1434.199219	10977.893555
1433.091797	10971.316406
1431.982422	10689.496094
1430.875000	10818.317383
1429.765625	11048.579102
1428.658203	10920.232422
1427.548828	10906.910156
1426.439453	10886.831055
1425.330078	10959.157227
1424.220703	10891.759766
1423.111328	10966.309570
1422.000000	11036.328125
1420.890625	10908.153320
1419.781250	10982.659180
1418.669922	11034.626953
1417.558594	11059.567383
1416.447266	11095.750000
1415.335938	11014.930664
1414.224609	11021.867188
1413.113281	10887.117188
1412.001953	11064.961914
1410.890625	11067.389648
1409.777344	10952.936523
1408.666016	10892.459961
1407.552734	10757.861328
1406.439453	10634.544922
1405.326172	10720.152344
1404.212891	10522.785156
1403.099609	10572.458984
1401.986328	10653.541016
1400.871094	10597.688477
1399.757813	10739.321289
1398.642578	10699.178711
1397.529297	10629.891602
1396.414063	10643.608398
1395.298828	10410.674805
1394.183594	10437.877930
1393.068359	10496.450195
1391.953125	10465.362305
1390.837891	10626.974609
1389.720703	10351.698242
1388.605469	10526.708984
1387.488281	10446.374023
1386.373047	10507.119141
1385.255859	10321.609375
1384.138672	10462.924805
1383.021484	10532.583984
1381.904297	10313.614258
1380.785156	10414.589844
1379.667969	10495.400391
1378.550781	10484.506836
1377.431641	10464.673828
1376.312500	10534.254883
1375.195313	10375.867188
1374.076172	10454.375977
1372.957031	10342.973633
1371.837891	10566.635742
1370.716797	10423.991211
1369.597656	10497.966797
1368.478516	10596.470703
1367.357422	10418.190430
1366.238281	10538.986328
1365.117188	10595.038086
1363.996094	10559.615234
1362.875000	10419.386719
1361.753906	10455.361328
1360.632813	10535.910156
1359.511719	10692.212891
1358.388672	10563.206055
1357.267578	10447.616211
1356.144531	10347.662109
1355.021484	10481.611328
1353.900391	10646.686523
1352.777344	10622.451172
1351.654297	10584.868164
1350.531250	10694.191406
1349.406250	10518.645508
1348.283203	10710.258789
1347.160156	10826.170898
1346.035156	10753.000977
1344.910156	10771.025391
1343.787109	10617.858398
1342.662109	10809.275391
1341.537109	10789.499023
1340.412109	10629.747070
1339.287109	10776.625977
1338.160156	10723.548828
1337.035156	10772.644531
1335.908203	10950.499023
1334.783203	10719.828125
1333.656250	10866.553711
1332.529297	10778.003906
1331.402344	10767.139648
1330.275391	10927.083984
1329.148438	10621.223633
1328.021484	10681.351563
1326.894531	10781.363281
1325.765625	10961.136719
1324.638672	10639.981445
1323.509766	10934.935547
1322.380859	10939.564453
1321.251953	10906.538086
1320.123047	10773.867188
1318.994141	10944.584961
1317.865234	11000.125000
1316.736328	10792.256836
1315.605469	10865.506836
1314.476563	11025.019531
1313.345703	10819.472656
1312.214844	10815.267578
1311.083984	10685.019531
1309.953125	10771.486328
1308.822266	10884.448242
1307.691406	10776.359375
1306.560547	10655.051758
1305.429688	10827.622070
1304.296875	10617.995117
1303.166016	10640.333008
1302.033203	10781.897461
1300.900391	10592.263672
1299.767578	10782.342773
1298.634766	10753.875977
1297.501953	10577.589844
1296.369141	10685.944336
1295.234375	10646.482422
1294.101563	10761.399414
1292.966797	10691.070313
1291.833984	10622.971680
1290.699219	10579.141602
1289.564453	10546.345703
1288.429688	10725.066406
1287.294922	10701.066406
1286.160156	10626.419922
1285.025391	10474.732422
1283.888672	10558.666992
1282.753906	10686.592773
1281.617188	10501.965820
1280.480469	10636.457031
1279.343750	10724.698242
1278.208984	10610.550781
1277.070313	10804.323242
1275.933594	10443.944336
1274.796875	10595.907227
1273.660156	10475.272461
1272.521484	10633.765625
1271.384766	10572.489258
1270.246094	10552.972656
1269.107422	10777.252930
1267.968750	10654.498047
1266.830078	10670.104492
1265.691406	10582.535156
1264.552734	10468.661133
1263.414063	10558.898438
1262.273438	10561.345703
1261.134766	10633.984375
1259.994141	10673.699219
1258.853516	10612.536133
1257.712891	10345.321289
1256.572266	10810.289063
1255.431641	10516.838867
1254.291016	10457.939453
1253.150391	10548.026367
1252.007813	10673.123047
1250.867188	10739.048828
1249.724609	10710.802734
1248.582031	10638.786133
1247.441406	10669.662109
1246.298828	10766.173828
1245.156250	10648.240234
1244.011719	10889.090820
1242.869141	10703.379883
1241.726563	10974.744141
1240.582031	10896.209961
1239.439453	10848.306641
1238.294922	10892.208984
1237.150391	10844.323242
1236.005859	10846.700195
1234.861328	10988.868164
1233.716797	11076.386719
1232.572266	10893.128906
1231.427734	10919.507813
1230.281250	11079.016602
1229.136719	11159.906250
1227.990234	11105.493164
1226.843750	11186.348633
1225.697266	11092.691406
1224.550781	11121.182617
1223.404297	11130.041016
1222.257813	11136.716797
1221.111328	11210.951172
1219.962891	11328.738281
1218.816406	11232.977539
1217.667969	11143.785156
1216.519531	11313.787109
1215.373047	11409.693359
1214.224609	11516.448242
1213.074219	11405.501953
1211.925781	11523.099609
1210.777344	11447.004883
1209.628906	11316.552734
1208.478516	11399.299805
1207.330078	11532.032227
1206.179688	11677.761719
1205.029297	11603.879883
1203.878906	11738.673828
1202.728516	11760.420898
1201.578125	11573.586914
1200.427734	11812.578125
1199.275391	11753.940430
1198.125000	11675.780273
1196.972656	11699.687500
1195.822266	11808.240234
1194.669922	11892.879883
1193.517578	11847.296875
1192.365234	11760.511719
1191.212891	11866.802734
1190.058594	12200.760742
1188.906250	12090.106445
1187.753906	11964.317383
1186.599609	12157.187500
1185.445313	12048.767578
1184.292969	12185.218750
1183.138672	12078.998047
1181.984375	12165.577148
1180.830078	12046.406250
1179.673828	12293.172852
1178.519531	12312.558594
1177.365234	12396.865234
1176.208984	12405.404297
1175.054688	12353.363281
1173.898438	12502.505859
1172.742188	12456.953125
1171.585938	12398.442383
1170.429688	12502.093750
1169.273438	12590.575195
1168.115234	12637.963867
1166.958984	12674.531250
1165.800781	12609.550781
1164.644531	12821.058594
1163.486328	12812.220703
1162.328125	12883.272461
1161.169922	12928.391602
1160.011719	12846.155273
1158.853516	12889.106445
1157.695313	12834.954102
1156.535156	12929.660156
1155.376953	12886.302734
1154.216797	13125.436523
1153.058594	13373.104492
1151.898438	13187.423828
1150.738281	13260.423828
1149.578125	13447.596680
1148.417969	13391.261719
1147.255859	13427.565430
1146.095703	13603.833984
1144.933594	13560.417969
1143.773438	13609.584961
1142.611328	13749.131836
1141.449219	14006.982422
1140.287109	13817.216797
1139.125000	14001.819336
1137.962891	13874.494141
1136.800781	14041.814453
1135.638672	14166.073242
1134.474609	14247.293945
1133.312500	14225.324219
1132.148438	14583.693359
1130.984375	14475.733398
1129.820313	14887.623047
1128.656250	14635.756836
1127.492188	14770.476563
1126.328125	15006.043945
1125.162109	14913.126953
1123.998047	14953.293945
1122.832031	14989.155273
1121.667969	15078.631836
1120.501953	15290.329102
1119.335938	15248.906250
1118.169922	15381.163086
1117.003906	15466.210938
1115.837891	15579.088867
1114.669922	15672.638672
1113.503906	15888.271484
1112.335938	15647.570313
1111.169922	15923.091797
1110.001953	16157.827148
1108.833984	16161.263672
1107.666016	16363.760742
1106.498047	16354.315430
1105.330078	16513.906250
1104.160156	16493.738281
1102.992188	16542.021484
1101.822266	16637.332031
1100.654297	16666.326172
1099.484375	17161.322266
1098.314453	17376.152344
1097.144531	17231.902344
1095.974609	17322.718750
1094.804688	17663.425781
1093.632813	17630.255859
1092.462891	17389.972656
1091.291016	17918.347656
1090.121094	17951.316406
1088.949219	18016.283203
1087.777344	17906.259766
1086.605469	18052.277344
1085.433594	18161.978516
1084.261719	18597.917969
1083.087891	18588.074219
1081.916016	18567.576172
1080.742188	18664.308594
1079.570313	18797.230469
1078.396484	18887.490234
1077.222656	18911.679688
1076.048828	19050.867188
1074.875000	18977.064453
1073.701172	19418.501953
1072.525391	19453.214844
1071.351563	19577.296875
1070.175781	19818.361328
1069.001953	19535.992188
1067.826172	19864.179688
1066.650391	20173.105469
1065.474609	20192.748047
1064.298828	20263.402344
1063.123047	20461.554688
1061.945313	20559.755859
1060.769531	20600.552734
1059.591797	20711.433594
1058.416016	20679.974609
1057.238281	20896.970703
1056.060547	20888.839844
1054.882813	21245.810547
1053.705078	21611.136719
1052.525391	21399.173828
1051.347656	21567.033203
1050.169922	21849.369141
1048.990234	21743.509766
1047.810547	21792.470703
1046.632813	22083.082031
1045.453125	22187.066406
1044.273438	22572.853516
1043.093750	22375.847656
1041.912109	22505.134766
1040.732422	22702.146484
1039.550781	22659.802734
1038.371094	22839.771484
1037.189453	22964.636719
1036.007813	22998.451172
1034.826172	23252.312500
1033.644531	23459.535156
1032.462891	23389.589844
1031.281250	23357.736328
1030.099609	23378.751953
1028.916016	24122.742188
1027.734375	23780.066406
1026.550781	24033.439453
1025.367188	23923.314453
1024.183594	24159.664063
1023.000000	24155.152344
1021.816406	24180.205078
1020.632813	24610.601563
1019.447266	24487.798828
1018.263672	24394.583984
1017.078125	24780.384766
1015.892578	24908.662109
1014.707031	25055.873047
1013.521484	24884.589844
1012.335938	25038.070313
1011.150391	24923.769531
1009.964844	25117.228516
1008.777344	25163.105469
1007.591797	25181.572266
1006.404297	25271.652344
1005.218750	25212.164063
1004.031250	25575.943359
1002.843750	25051.142578
1001.656250	25600.044922
1000.466797	25454.248047
999.279297	25521.019531
998.091797	25333.212891
996.902344	25545.111328
995.712891	25496.160156
994.525391	25918.201172
993.335938	25680.000000
992.146484	25530.164063
990.957031	25693.484375
989.765625	25770.603516
988.576172	25641.833984
987.384766	25758.833984
986.195313	26010.173828
985.003906	25553.919922
983.812500	25895.458984
982.621094	25842.328125
981.429688	25787.117188
980.238281	25899.750000
979.046875	25903.273438
977.855469	25556.589844
976.662109	25824.349609
975.470703	25809.013672
974.277344	25552.658203
973.083984	25834.931641
971.890625	25821.691406
970.697266	25898.525391
969.503906	25684.224609
968.308594	25769.429688
967.115234	25829.476563
965.919922	25711.587891
964.726563	25844.863281
963.531250	25814.888672
962.335938	25833.037109
961.140625	25654.574219
959.945313	25722.929688
958.750000	25793.347656
957.552734	25495.837891
956.357422	25756.455078
955.160156	25816.373047
953.964844	25688.244141
952.767578	25867.208984
951.570313	25757.910156
950.373047	25533.812500
949.175781	25833.779297
947.978516	25908.214844
946.779297	25984.708984
945.582031	26040.306641
944.382813	25822.615234
943.183594	25855.277344
941.986328	25829.541016
940.787109	25737.095703
939.585938	26092.835938
938.386719	25896.171875
937.187500	25753.755859
935.988281	25805.130859
934.787109	26046.025391
933.585938	26132.726563
932.386719	26161.093750
931.185547	26124.916016
929.984375	25822.347656
928.783203	25719.658203
927.580078	25621.164063
926.378906	25868.001953
925.175781	25657.210938
923.974609	25802.058594
922.771484	25963.480469
921.568359	25910.753906
920.365234	25897.527344
919.162109	25794.962891
917.958984	25893.937500
916.755859	25619.023438
915.550781	25593.396484
914.347656	25792.001953
913.142578	25654.255859
911.939453	25595.425781
910.734375	25219.146484
909.529297	25479.902344
908.324219	25217.863281
907.117188	25155.005859
905.912109	25268.408203
904.707031	25508.218750
903.500000	25117.865234
902.292969	25023.982422
901.085938	24901.130859
899.878906	24602.251953
898.671875	24802.601563
897.464844	24371.332031
896.257813	24445.361328
895.050781	24417.939453
893.841797	24274.636719
892.632813	24013.451172
891.425781	23773.048828
890.216797	23832.636719
889.007813	23751.582031
887.798828	23546.509766
886.587891	23798.339844
885.378906	23510.666016
884.169922	23353.275391
882.958984	23059.593750
881.748047	23007.687500
880.539063	22813.306641
879.328125	22939.029297
878.117188	22864.464844
876.904297	22606.234375
875.693359	22484.294922
874.482422	22199.414063
873.269531	22120.914063
872.056641	22137.308594
870.845703	21799.041016
869.632813	21796.935547
868.419922	21355.798828
867.207031	21380.566406
865.992188	21151.894531
864.779297	21030.427734
863.566406	21215.886719
862.351563	20946.189453
861.136719	20909.238281
859.921875	20551.187500
858.707031	20592.529297
857.492188	20642.083984
856.277344	20276.056641
855.062500	20134.363281
853.845703	20054.416016
852.630859	20030.011719
851.414063	19890.498047
850.197266	19765.423828
848.982422	19704.095703
847.763672	19930.416016
846.546875	19454.154297
845.330078	19600.339844
844.113281	19280.371094
842.894531	19369.048828
841.677734	19139.554688
840.458984	19170.765625
839.240234	18982.427734
838.021484	18933.652344
836.802734	18821.314453
835.583984	18879.212891
834.363281	18980.140625
833.144531	18662.880859
831.923828	18839.632813
830.703125	18942.554688
829.484375	18738.150391
828.263672	18951.650391
827.042969	18790.324219
825.820313	18598.347656
824.599609	18564.062500
823.378906	18765.146484
822.156250	18583.513672
820.933594	18676.083984
819.712891	18326.812500
818.490234	18605.492188
817.267578	18693.912109
816.044922	18616.716797
814.820313	18692.835938
813.597656	18709.664063
812.373047	18726.484375
811.150391	18792.322266
809.925781	18576.300781
808.701172	18899.412109
807.476563	18583.419922
806.251953	18986.003906
805.027344	18931.318359
803.800781	19013.353516
802.576172	18891.367188
801.349609	19114.099609
800.125000	19100.208984
798.898438	19161.755859
797.671875	19147.859375
796.445313	19205.292969
795.216797	19454.230469
793.990234	19568.619141
792.763672	19387.636719
791.535156	19247.449219
790.306641	19502.289063
789.080078	19394.699219
787.851563	19472.349609
786.621094	19625.255859
785.392578	19540.078125
784.164063	19629.855469
782.935547	19872.113281
781.705078	19736.105469
780.474609	19791.228516
779.246094	19748.775391
778.015625	19913.601563
776.785156	19777.685547
775.552734	19958.687500
774.322266	20243.191406
773.091797	20212.867188
771.859375	20273.904297
770.628906	20150.218750
769.396484	20243.708984
768.164063	20479.181641
766.931641	20465.060547
765.699219	20511.785156
764.464844	20380.056641
763.232422	20428.804688
761.998047	20605.224609
760.765625	20698.490234
759.531250	20668.125000
758.296875	20957.830078
757.062500	20722.869141
755.828125	20884.878906
754.593750	20977.992188
753.357422	20747.207031
752.123047	20896.970703
750.886719	20905.041016
749.652344	20765.433594
748.416016	20961.621094
747.179688	21006.068359
745.943359	20973.669922
744.705078	20981.710938
743.468750	21408.087891
742.232422	21220.041016
740.994141	21405.800781
739.755859	21403.644531
738.517578	21235.900391
737.279297	21405.390625
736.041016	21417.363281
734.802734	21399.054688
733.564453	21346.451172
732.324219	21398.771484
731.085938	21428.882813
729.845703	21460.996094
728.605469	21491.080078
727.365234	21551.388672
726.125000	21700.351563
724.884766	21585.283203
723.642578	21458.169922
722.402344	21453.974609
721.160156	21536.376953
719.919922	21548.273438
718.677734	21747.378906
717.435547	21624.376953
716.193359	21485.322266
714.951172	21629.998047
713.707031	21752.490234
712.464844	21613.486328
711.220703	21577.083984
709.976563	21781.933594
708.734375	21634.960938
707.490234	21564.408203
706.246094	21686.759766
705.000000	21823.123047
703.755859	21708.386719
702.511719	21589.677734
701.265625	21742.037109
700.019531	22040.857422
698.773438	21761.605469
697.527344	21628.927734
696.281250	21761.093750
695.035156	21377.763672
693.789063	21662.320313
692.541016	21684.130859
691.294922	21539.564453
690.046875	21849.970703
688.798828	21865.716797
687.550781	21975.607422
686.302734	21532.666016
685.054688	21916.914063
683.806641	21906.601563
682.556641	21477.941406
681.308594	21825.947266
680.058594	21889.685547
678.808594	21781.357422
677.558594	22031.087891
676.308594	21814.787109
675.058594	21812.496094
673.806641	21822.197266
672.556641	21957.800781
671.304688	21783.638672
670.054688	22001.101563
668.802734	22096.638672
667.550781	22076.314453
666.298828	22129.867188
665.044922	22474.839844
663.792969	22376.611328
662.541016	22166.681641
661.287109	22036.630859
660.033203	22149.968750
658.779297	22428.781250
657.525391	22372.523438
656.271484	22354.160156
655.017578	22100.625000
653.763672	22425.052734
652.507813	22432.583984
651.253906	22406.250000
649.998047	22471.531250
648.742188	22512.892578
647.486328	22643.816406
646.230469	22641.339844
644.974609	22632.890625
643.716797	22823.394531
642.460938	22574.230469
641.203125	22607.560547
639.945313	22656.781250
638.687500	22594.656250
637.429688	22985.712891
636.171875	22798.355469
634.914063	23193.187500
633.656250	23101.205078
632.396484	23045.005859
631.136719	23358.142578
629.878906	23147.068359
628.619141	23331.046875
627.359375	23282.777344
626.097656	23534.109375
624.837891	23579.046875
623.578125	23717.173828
622.316406	23764.037109
621.056641	23767.265625
619.794922	23966.712891
618.533203	24279.033203
617.271484	24280.171875
616.009766	24396.199219
614.746094	24894.408203
613.484375	24643.953125
612.220703	24825.164063
610.958984	24699.511719
609.695313	24947.919922
608.431641	25119.066406
607.167969	25402.894531
605.902344	25635.189453
604.638672	25916.824219
603.375000	25733.765625
602.109375	25910.507813
600.843750	26093.109375
599.580078	26421.841797
598.314453	26262.525391
597.046875	26431.117188
595.781250	26781.302734
594.515625	26815.476563
593.248047	27325.322266
591.982422	27205.447266
590.714844	27383.541016
589.447266	27612.853516
588.179688	27790.794922
586.912109	27812.886719
585.644531	27586.566406
584.375000	28387.257813
583.107422	27953.988281
581.837891	28391.753906
580.568359	28474.763672
579.298828	28770.445313
578.029297	28394.542969
576.759766	28843.679688
575.490234	29087.929688
574.218750	29336.017578
572.949219	29048.833984
571.677734	29548.623047
570.406250	29405.080078
569.134766	29442.500000
567.863281	29236.121094
566.591797	29605.742188
565.320313	29601.824219
564.046875	29474.125000
562.775391	29187.355469
561.501953	29652.921875
560.228516	29702.011719
558.955078	29599.908203
557.681641	29670.576172
556.408203	30051.285156
555.134766	29815.748047
553.859375	29778.431641
552.583984	29680.330078
551.310547	30003.861328
550.035156	29843.013672
548.759766	29709.669922
547.484375	29844.863281
546.207031	29644.951172
544.931641	30003.421875
543.654297	29960.240234
542.378906	29917.074219
541.101563	29868.050781
539.824219	29959.978516
538.546875	30010.769531
537.269531	30202.417969
535.990234	29881.453125
534.712891	30417.275391
533.433594	30168.746094
532.156250	30270.269531
530.876953	30774.414063
529.597656	32591.638672
528.318359	30338.167969
527.039063	30240.314453
525.757813	30290.933594
524.478516	30310.289063
523.197266	30093.400391
521.916016	30430.953125
520.634766	30772.271484
519.353516	30563.220703
518.072266	30584.445313
516.791016	30525.693359
515.509766	30759.466797
514.226563	30934.654297
512.943359	31012.310547
511.662109	30575.437500
510.378906	30978.523438
509.095703	31089.236328
507.810547	30903.857422
506.527344	31024.275391
505.244141	31166.058594
503.958984	31342.822266
502.673828	31457.238281
501.388672	31351.738281
500.103516	31042.015625
498.818359	31304.236328
497.533203	31220.214844
496.248047	31365.640625
494.960938	31205.830078
493.675781	31121.875000
492.388672	31183.679688
491.101563	31278.482422
489.814453	31078.023438
488.527344	31015.517578
487.238281	31096.703125
485.951172	30884.748047
484.662109	30923.230469
483.375000	30660.945313
482.085938	31068.039063
480.796875	30673.937500
479.507813	30652.310547
478.218750	30708.242188
476.927734	30469.515625
475.638672	30467.318359
474.347656	30071.785156
473.058594	30338.941406
471.767578	29900.978516
470.476563	29895.017578
469.185547	29964.566406
467.892578	29794.060547
466.601563	29832.634766
465.308594	29718.333984
464.017578	29646.636719
462.724609	29424.103516
461.431641	29447.244141
460.138672	29476.175781
458.845703	29435.507813
457.550781	29300.156250
456.257813	29207.367188
454.962891	28990.976563
453.669922	29074.044922
452.375000	28678.175781
451.080078	28975.576172
449.785156	28929.265625
448.490234	28827.005859
447.193359	28774.953125
445.898438	28703.626953
444.601563	28707.550781
443.304688	28994.943359
442.007813	28699.966797
440.710938	28705.814453
439.414063	28850.416016
438.117188	28848.521484
436.818359	28557.660156
435.521484	28551.970703
434.222656	28355.638672
432.923828	28588.726563
431.625000	28638.853516
430.326172	28500.355469
429.027344	28692.865234
427.728516	28437.060547
426.427734	28244.830078
425.126953	28348.814453
423.828125	28327.787109
422.527344	28170.289063
421.226563	28435.660156
419.925781	28199.419922
418.623047	28407.044922
417.322266	28345.689453
416.019531	28389.972656
414.718750	28641.591797
413.416016	28271.173828
412.113281	28115.851563
410.810547	27954.832031
409.507813	28135.351563
408.203125	27907.261719
406.900391	28191.271484
405.595703	27946.001953
404.291016	28070.789063
402.988281	28007.707031
401.681641	27728.130859
400.376953	27709.203125
399.072266	27866.496094
397.767578	27692.433594
396.460938	27506.953125
395.154297	27746.500000
393.849609	27587.875000
392.542969	27417.832031
391.236328	27687.861328
389.927734	27558.031250
388.621094	27290.564453
387.314453	27394.119141
386.005859	27361.912109
384.697266	27356.472656
383.388672	27156.134766
382.080078	27347.509766
380.771484	27254.212891
379.462891	27317.544922
378.152344	26977.994141
376.843750	27239.878906
375.533203	27034.074219
374.222656	27209.976563
372.912109	27275.160156
371.601563	27277.371094
370.291016	27317.722656
368.980469	26921.441406
367.667969	27514.656250
366.357422	27196.632813
365.044922	27105.488281
363.732422	27286.808594
362.419922	27161.396484
361.107422	27230.275391
359.794922	27420.982422
358.480469	27209.955078
357.167969	27185.525391
355.853516	27006.974609
354.539063	27205.181641
353.224609	27488.904297
351.910156	27491.060547
350.595703	27291.675781
349.281250	27238.742188
347.964844	27206.736328
346.650391	27176.642578
345.333984	27241.550781
344.017578	26901.851563
342.701172	27061.742188
341.384766	27462.703125
340.066406	27052.921875
338.750000	26823.609375
337.431641	26869.533203
336.115234	26805.400391
334.796875	27151.005859
333.478516	26736.001953
332.160156	26857.750000
330.841797	26774.712891
329.521484	26835.751953
328.203125	26680.744141
326.882813	26658.417969
325.564453	26700.501953
324.244141	26483.117188
322.923828	26805.447266
321.601563	26754.716797
320.281250	26849.744141
318.960938	26738.470703
317.638672	26657.511719
316.318359	26671.162109
314.996094	26690.482422
313.673828	26968.835938
312.351563	26952.169922
311.027344	26742.722656
309.705078	27028.460938
308.382813	26888.986328
307.058594	27131.136719
305.734375	27127.675781
304.410156	26931.617188
303.085938	26888.550781
301.761719	27107.861328
300.437500	27157.244141
299.111328	27180.195313
297.787109	27197.476563
296.460938	27080.847656
295.134766	27116.998047
293.808594	27313.380859
292.482422	27404.134766
291.156250	27396.857422
289.830078	27547.849609
288.501953	27531.126953
287.175781	27538.896484
285.847656	27606.919922
284.519531	27445.232422
283.191406	27407.839844
281.863281	27648.984375
280.533203	27671.775391
279.205078	27457.531250
277.876953	27480.351563
276.546875	27681.802734
275.216797	27525.964844
273.886719	27584.472656
272.556641	27597.855469
271.226563	27695.783203
269.894531	27673.445313
268.564453	27547.814453
267.232422	27598.750000
265.900391	27491.957031
264.570313	27708.070313
263.238281	27779.589844
261.904297	27871.720703
260.572266	28157.046875
259.240234	28119.650391
257.906250	27996.003906
256.572266	27870.533203
