#Wave		#Intensity
1483.960938	19017.318359
1482.861328	19219.873047
1481.763672	19091.058594
1480.664063	19285.347656
1479.564453	19243.005859
1478.464844	19137.003906
1477.367188	19160.644531
1476.265625	19127.447266
1475.166016	19078.349609
1474.066406	18995.187500
1472.966797	19302.839844
1471.865234	19494.525391
1470.765625	19452.212891
1469.664063	19087.478516
1468.562500	19099.746094
1467.460938	19168.755859
1466.359375	19462.412109
1465.257813	19293.083984
1464.156250	19246.324219
1463.052734	19301.648438
1461.951172	19313.865234
1460.847656	19063.076172
1459.746094	19197.742188
1458.642578	19441.146484
1457.539063	19149.689453
1456.435547	19207.236328
1455.332031	19144.710938
1454.228516	19363.031250
1453.123047	19160.117188
1452.019531	19394.199219
1450.916016	19356.585938
1449.810547	19400.453125
1448.705078	19525.755859
1447.599609	19354.675781
1446.494141	19511.603516
1445.388672	19170.996094
1444.283203	19590.158203
1443.177734	19394.332031
1442.070313	19596.335938
1440.964844	19432.214844
1439.857422	19494.072266
1438.751953	19228.390625
1437.644531	19432.535156
1436.537109	19264.054688
1435.429688	19501.976563
1434.322266	19563.763672
1433.214844	19630.039063
1432.105469	19335.304688
1430.998047	19320.394531
1429.888672	19224.296875
1428.781250	19261.275391
1427.671875	19329.802734
1426.562500	19303.632813
1425.453125	19275.222656
1424.343750	19134.162109
1423.234375	19299.531250
1422.123047	19586.466797
1421.013672	19330.578125
1419.904297	19268.417969
1418.792969	19537.189453
1417.681641	19517.775391
1416.570313	19471.367188
1415.458984	19429.474609
1414.347656	19387.597656
1413.236328	19179.314453
1412.125000	19553.484375
1411.013672	19520.601563
1409.900391	19382.087891
1408.789063	19387.455078
1407.675781	19316.425781
1406.562500	19380.210938
1405.449219	19138.509766
1404.335938	19033.882813
1403.222656	18980.935547
1402.109375	19186.156250
1400.996094	18985.072266
1399.880859	18979.287109
1398.767578	18722.228516
1397.652344	18707.521484
1396.537109	18791.498047
1395.421875	18886.654297
1394.308594	18755.349609
1393.191406	18700.300781
1392.076172	18885.062500
1390.960938	18525.291016
1389.845703	18783.941406
1388.728516	18733.410156
1387.613281	18788.146484
1386.496094	18701.808594
1385.378906	18640.128906
1384.261719	18426.279297
1383.144531	18906.193359
1382.027344	18730.408203
1380.910156	18881.267578
1379.791016	18698.843750
1378.673828	18614.871094
1377.554688	18783.554688
1376.437500	18847.121094
1375.318359	18553.099609
1374.199219	18574.232422
1373.080078	18731.628906
1371.960938	18679.013672
1370.841797	18740.306641
1369.722656	18877.490234
1368.601563	18876.220703
1367.482422	19044.572266
1366.361328	18547.888672
1365.240234	18816.636719
1364.119141	18987.136719
1363.000000	19010.380859
1361.878906	18866.378906
1360.755859	18972.123047
1359.634766	18861.617188
1358.513672	19040.867188
1357.390625	18961.582031
1356.269531	18897.921875
1355.146484	19005.789063
1354.023438	18982.228516
1352.900391	19018.792969
1351.777344	18888.384766
1350.654297	18820.345703
1349.531250	18821.314453
1348.408203	19189.382813
1347.283203	18947.818359
1346.160156	19082.205078
1345.035156	19036.427734
1343.910156	18995.113281
1342.787109	19193.876953
1341.662109	19081.433594
1340.537109	19053.464844
1339.410156	19249.884766
1338.285156	19308.521484
1337.160156	19424.875000
1336.033203	19359.117188
1334.908203	19271.185547
1333.781250	19391.919922
1332.654297	19337.300781
1331.527344	19273.826172
1330.400391	19307.978516
1329.273438	19348.773438
1328.146484	19325.246094
1327.017578	19394.841797
1325.890625	19497.664063
1324.761719	19367.740234
1323.634766	19302.125000
1322.505859	19482.445313
1321.376953	19720.289063
1320.248047	19419.896484
1319.119141	19411.886719
1317.990234	19470.294922
1316.861328	19577.375000
1315.730469	19299.357422
1314.601563	19576.796875
1313.470703	19460.369141
1312.339844	19445.724609
1311.208984	19515.117188
1310.080078	19465.091797
1308.949219	19169.716797
1307.816406	19055.679688
1306.685547	19363.740234
1305.554688	19139.244141
1304.421875	19308.013672
1303.291016	19189.617188
1302.158203	19395.851563
1301.025391	19164.890625
1299.892578	19322.494141
1298.759766	18926.115234
1297.626953	19094.736328
1296.494141	19239.027344
1295.361328	19129.615234
1294.226563	19311.335938
1293.093750	19193.132813
1291.958984	19227.076172
1290.824219	19141.990234
1289.689453	19134.062500
1288.554688	19090.884766
1287.419922	18986.042969
1286.285156	18964.933594
1285.150391	19256.513672
1284.013672	19184.722656
1282.878906	18837.808594
1281.742188	18981.798828
1280.607422	18923.298828
1279.470703	19078.218750
1278.333984	18914.142578
1277.197266	19040.416016
1276.060547	19195.226563
1274.921875	19202.691406
1273.785156	18845.291016
1272.648438	18800.074219
1271.509766	18928.447266
1270.371094	18929.361328
1269.234375	19103.787109
1268.095703	18705.007813
1266.957031	18934.296875
1265.818359	19108.625000
1264.677734	18953.677734
1263.539063	19277.150391
1262.400391	18766.812500
1261.259766	18960.781250
1260.119141	19270.914063
1258.980469	19230.097656
1257.839844	18853.871094
1256.699219	19016.994141
1255.558594	18978.435547
1254.417969	18874.160156
1253.275391	18769.919922
1252.134766	19252.718750
1250.992188	19277.652344
1249.851563	19144.931641
1248.708984	19417.240234
1247.566406	19190.427734
1246.423828	19453.875000
1245.281250	19316.839844
1244.138672	19549.541016
1242.996094	19495.648438
1241.853516	19229.666016
1240.708984	19615.292969
1239.564453	19666.337891
1238.421875	19815.708984
1237.277344	19508.343750
1236.132813	19607.441406
1234.988281	19951.140625
1233.843750	20082.876953
1232.699219	19801.888672
1231.552734	19586.494141
1230.408203	19469.398438
1229.261719	19729.876953
1228.117188	20197.537109
1226.970703	20361.800781
1225.824219	20251.189453
1224.677734	20007.597656
1223.531250	20330.962891
1222.384766	20246.574219
1221.238281	20417.212891
1220.089844	20537.669922
1218.943359	20804.052734
1217.794922	20530.126953
1216.646484	20687.519531
1215.498047	20779.527344
1214.351563	20753.941406
1213.201172	20691.359375
1212.052734	20829.015625
1210.904297	21138.513672
1209.755859	20780.031250
1208.605469	20878.441406
1207.457031	21159.488281
1206.306641	21038.191406
1205.156250	21160.410156
1204.005859	21223.900391
1202.855469	21187.406250
1201.705078	21259.556641
1200.554688	21444.638672
1199.402344	21412.462891
1198.251953	21569.218750
1197.099609	21736.769531
1195.949219	21472.294922
1194.796875	21743.974609
1193.644531	21707.429688
1192.492188	21699.101563
1191.339844	22109.408203
1190.187500	22027.271484
1189.033203	22018.886719
1187.880859	22051.693359
1186.726563	22244.880859
1185.574219	22255.962891
1184.419922	22275.705078
1183.265625	22483.906250
1182.111328	22490.601563
1180.957031	22427.998047
1179.802734	22690.181641
1178.646484	22480.363281
1177.492188	22688.330078
1176.337891	22924.351563
1175.181641	23095.378906
1174.025391	22920.246094
1172.869141	22892.240234
1171.712891	22972.359375
1170.556641	23022.181641
1169.400391	23108.730469
1168.244141	23298.978516
1167.085938	23528.048828
1165.929688	23355.214844
1164.771484	23765.623047
1163.615234	23605.763672
1162.457031	23856.197266
1161.298828	23594.916016
1160.140625	23739.498047
1158.982422	23972.501953
1157.822266	24058.705078
1156.664063	24239.791016
1155.503906	24535.115234
1154.345703	24127.361328
1153.185547	24582.134766
1152.025391	24571.140625
1150.865234	24495.496094
1149.705078	24788.339844
1148.544922	25040.142578
1147.384766	25020.453125
1146.224609	24942.621094
1145.062500	25241.623047
1143.902344	25379.054688
1142.740234	25593.921875
1141.578125	25688.195313
1140.416016	25797.494141
1139.253906	25947.625000
1138.091797	26263.310547
1136.929688	26662.742188
1135.765625	26410.576172
1134.603516	26549.730469
1133.439453	26746.859375
1132.277344	26971.847656
1131.113281	27134.449219
1129.949219	27335.654297
1128.785156	27526.044922
1127.621094	27849.490234
1126.457031	27915.197266
1125.291016	27950.828125
1124.126953	28183.878906
1122.960938	27891.162109
1121.796875	28512.423828
1120.630859	28794.570313
1119.464844	28855.732422
1118.298828	29054.087891
1117.132813	29288.812500
1115.966797	29834.222656
1114.798828	29490.138672
1113.632813	29748.214844
1112.464844	29875.527344
1111.298828	30086.316406
1110.130859	30545.416016
1108.962891	30616.843750
1107.794922	30756.738281
1106.626953	30791.712891
1105.458984	30995.710938
1104.289063	31387.892578
1103.121094	31046.279297
1101.951172	31562.333984
1100.783203	31806.656250
1099.613281	32121.431641
1098.443359	32248.003906
1097.273438	32492.056641
1096.103516	32308.712891
1094.933594	33056.789063
1093.761719	33022.906250
1092.591797	33279.441406
1091.419922	33463.292969
1090.250000	33666.281250
1089.078125	33662.183594
1087.906250	33907.734375
1086.734375	34332.394531
1085.562500	34208.718750
1084.390625	34865.613281
1083.218750	34780.261719
1082.044922	34995.523438
1080.873047	35074.292969
1079.699219	35206.304688
1078.525391	35463.972656
1077.351563	36058.117188
1076.177734	35908.734375
1075.003906	36127.792969
1073.830078	36708.703125
1072.656250	36931.785156
1071.480469	37152.652344
1070.306641	37126.605469
1069.130859	37589.882813
1067.955078	37729.671875
1066.779297	37792.847656
1065.603516	37985.699219
1064.427734	38265.636719
1063.251953	38641.113281
1062.076172	38976.074219
1060.898438	39147.304688
1059.722656	39473.546875
1058.544922	39510.812500
1057.367188	39783.769531
1056.189453	39508.863281
1055.011719	39955.777344
1053.833984	39967.449219
1052.656250	40496.859375
1051.478516	41172.460938
1050.298828	41478.726563
1049.121094	41479.492188
1047.941406	41592.632813
1046.761719	42195.437500
1045.582031	42329.593750
1044.402344	42533.628906
1043.222656	42407.058594
1042.042969	42886.386719
1040.863281	42986.414063
1039.681641	43152.046875
1038.501953	43806.687500
1037.320313	44130.859375
1036.138672	44018.933594
1034.957031	44050.933594
1033.775391	44129.460938
1032.593750	44650.035156
1031.412109	44990.652344
1030.228516	45102.781250
1029.046875	45629.218750
1027.863281	45225.457031
1026.681641	45635.437500
1025.498047	46174.148438
1024.314453	46032.445313
1023.130859	46450.484375
1021.947266	46325.671875
1020.761719	46669.601563
1019.578125	46831.863281
1018.392578	47179.785156
1017.208984	46995.832031
1016.023438	47394.218750
1014.837891	47282.007813
1013.652344	47692.839844
1012.466797	47624.882813
1011.281250	47670.789063
1010.095703	48205.664063
1008.908203	47669.812500
1007.722656	48573.195313
1006.535156	48045.898438
1005.349609	48333.871094
1004.162109	48461.699219
1002.974609	48197.875000
1001.787109	48622.472656
1000.597656	48842.765625
999.410156	49180.804688
998.222656	48803.425781
997.033203	49008.828125
995.843750	49148.953125
994.656250	48786.503906
993.466797	49168.367188
992.277344	49058.261719
991.087891	49330.648438
989.896484	48836.058594
988.707031	49341.550781
987.517578	49685.128906
986.326172	49367.128906
985.134766	49574.105469
983.945313	49359.089844
982.753906	49855.597656
981.562500	49439.171875
980.371094	49604.007813
979.177734	49280.066406
977.986328	49813.949219
976.792969	49697.656250
975.601563	49361.292969
974.408203	49385.542969
973.214844	49307.105469
972.021484	49922.171875
970.828125	49690.742188
969.634766	49719.089844
968.441406	50101.296875
967.246094	49629.195313
966.052734	49674.277344
964.857422	49660.738281
963.662109	49848.066406
962.468750	49501.871094
961.273438	49613.855469
960.076172	50087.566406
958.880859	49925.500000
957.685547	49608.804688
956.488281	49538.839844
955.292969	49619.351563
954.095703	49685.203125
952.898438	49796.980469
951.703125	49536.976563
950.505859	49957.757813
949.306641	49973.382813
948.109375	49815.753906
946.912109	50142.328125
945.712891	49713.484375
944.515625	49852.203125
943.316406	49713.476563
942.117188	50327.570313
940.917969	50001.160156
939.718750	50091.761719
938.519531	50148.984375
937.320313	50787.523438
936.119141	50523.757813
934.919922	50393.390625
933.718750	50560.867188
932.517578	50378.484375
931.316406	50352.296875
930.115234	50800.652344
928.914063	50820.164063
927.712891	50078.195313
926.511719	50133.195313
925.308594	50518.843750
924.107422	50482.242188
922.904297	50466.437500
921.701172	50386.199219
920.498047	50391.191406
919.294922	50146.847656
918.091797	50137.335938
916.888672	49756.042969
915.683594	50481.714844
914.480469	50227.140625
913.275391	49559.582031
912.070313	49537.718750
910.867188	49503.410156
909.662109	49427.621094
908.455078	49692.027344
907.250000	48958.820313
906.044922	49227.355469
904.837891	49305.066406
903.632813	48816.910156
902.425781	48855.289063
901.218750	48783.843750
900.011719	48399.628906
898.804688	48411.128906
897.597656	48124.445313
896.390625	47537.679688
895.183594	47741.828125
893.974609	47469.910156
892.765625	47003.601563
891.558594	47220.136719
890.349609	46731.292969
889.140625	46451.488281
887.931641	46068.414063
886.722656	45811.578125
885.511719	45672.636719
884.302734	45517.218750
883.091797	45357.722656
881.882813	44809.960938
880.671875	44834.453125
879.460938	44514.117188
878.250000	44270.281250
877.039063	43908.886719
875.826172	43578.585938
874.615234	43019.390625
873.402344	42565.609375
872.191406	42441.980469
870.978516	42178.183594
869.765625	41648.535156
868.552734	41393.226563
867.339844	41475.984375
866.126953	41191.953125
864.912109	41095.492188
863.699219	40622.152344
862.484375	40739.992188
861.271484	40122.773438
860.056641	40215.957031
858.841797	39804.875000
857.626953	39412.468750
856.412109	39217.707031
855.195313	38889.320313
853.980469	38997.027344
852.763672	38150.671875
851.548828	38548.328125
850.332031	38522.437500
849.115234	37836.929688
847.898438	37562.585938
846.681641	37078.824219
845.464844	37716.574219
844.246094	37471.148438
843.029297	37301.773438
841.810547	36820.476563
840.591797	36755.941406
839.373047	36761.191406
838.156250	36473.093750
836.935547	36263.039063
835.716797	36592.363281
834.498047	36165.042969
833.277344	35826.023438
832.058594	36075.304688
830.837891	35791.753906
829.617188	36272.433594
828.396484	36103.644531
827.175781	35869.386719
825.955078	35878.863281
824.734375	35745.039063
823.511719	35556.003906
822.291016	35985.003906
821.068359	36043.535156
819.845703	35680.683594
818.625000	35733.113281
817.402344	36086.082031
816.177734	35907.410156
814.955078	35959.753906
813.732422	36128.558594
812.507813	36052.125000
811.285156	36312.757813
810.060547	35860.531250
808.835938	36239.527344
807.611328	36467.304688
806.386719	36445.972656
805.162109	36489.953125
803.935547	36676.730469
802.710938	36661.484375
801.484375	37035.792969
800.257813	36922.597656
799.033203	37021.476563
797.806641	37130.503906
796.580078	36950.097656
795.351563	37114.101563
794.125000	37249.523438
792.898438	37560.050781
791.669922	37383.761719
790.441406	37633.058594
789.214844	37837.472656
787.986328	37895.273438
786.757813	37957.117188
785.527344	37831.769531
784.298828	38410.230469
783.070313	38341.781250
781.839844	38476.671875
780.609375	38585.085938
779.380859	38384.523438
778.150391	38527.449219
776.919922	38560.609375
775.689453	38959.375000
774.457031	39079.761719
773.226563	38846.792969
771.994141	39417.824219
770.763672	38837.800781
769.531250	39156.972656
768.298828	39303.562500
767.066406	39306.070313
765.833984	39787.203125
764.601563	39617.257813
763.367188	39929.871094
762.134766	39847.113281
760.900391	40262.906250
759.666016	40159.847656
758.433594	40399.175781
757.199219	40405.496094
755.962891	40739.847656
754.728516	40478.851563
753.494141	40438.585938
752.257813	40760.585938
751.023438	40926.660156
749.787109	40942.964844
748.550781	40854.085938
747.314453	41337.515625
746.078125	41228.371094
744.841797	41329.492188
743.605469	41220.386719
742.367188	41489.175781
741.128906	41945.734375
739.892578	41887.058594
738.654297	41705.214844
737.416016	41709.195313
736.177734	41804.007813
734.939453	41781.718750
733.699219	41848.226563
732.460938	41850.140625
731.220703	42162.683594
729.982422	42233.101563
728.742188	42347.843750
727.501953	42023.078125
726.261719	41906.027344
725.019531	42449.976563
723.779297	41996.429688
722.539063	42256.121094
721.296875	42060.566406
720.054688	42245.636719
718.814453	42187.046875
717.572266	42319.687500
716.330078	42564.960938
715.085938	42291.054688
713.843750	42508.070313
712.601563	42529.917969
711.357422	42750.816406
710.113281	42398.671875
708.869141	42699.906250
707.626953	42621.207031
706.380859	42578.699219
705.136719	42244.929688
703.892578	42353.140625
702.646484	42577.765625
701.402344	42681.847656
700.156250	42651.398438
698.910156	42333.984375
697.664063	42257.460938
696.417969	42084.675781
695.171875	42283.000000
693.925781	42665.730469
692.677734	42282.445313
691.431641	42514.683594
690.183594	42764.863281
688.935547	42594.167969
687.687500	42954.406250
686.439453	42266.992188
685.191406	42539.039063
683.943359	42816.980469
682.693359	42578.371094
681.445313	42906.222656
680.195313	42705.703125
678.945313	42891.359375
677.695313	42784.917969
676.445313	42954.484375
675.195313	43403.886719
673.945313	43041.531250
672.693359	42765.257813
671.443359	43072.554688
670.191406	43068.074219
668.939453	43069.585938
667.687500	43136.992188
666.435547	43593.707031
665.183594	43537.214844
663.929688	43638.410156
662.677734	43342.476563
661.423828	43712.992188
660.171875	43822.062500
658.917969	43839.355469
657.664063	43988.226563
656.410156	43899.820313
655.154297	44104.425781
653.900391	44239.199219
652.646484	44023.281250
651.390625	43805.453125
650.134766	44119.433594
648.878906	43913.613281
647.623047	44326.976563
646.367188	44001.773438
645.111328	44150.292969
643.855469	44314.667969
642.597656	44747.507813
641.341797	44859.988281
640.083984	45318.394531
638.826172	45154.382813
637.568359	45123.601563
636.310547	45522.058594
635.052734	44968.691406
633.792969	45903.339844
632.535156	45634.105469
631.275391	45762.093750
630.015625	45522.765625
628.755859	46081.421875
627.496094	46447.371094
626.236328	46783.406250
624.976563	46621.417969
623.714844	47484.824219
622.455078	47519.054688
621.193359	46940.691406
619.931641	47807.476563
618.671875	48115.085938
617.408203	47879.699219
616.146484	48270.367188
614.884766	48858.921875
613.623047	49086.863281
612.359375	49605.730469
611.095703	49459.335938
609.833984	50270.800781
608.570313	50644.679688
607.306641	50779.054688
606.041016	51283.214844
604.777344	51150.460938
603.513672	51911.343750
602.248047	52497.988281
600.982422	52367.035156
599.716797	52593.753906
598.451172	53399.171875
597.185547	53815.191406
595.919922	53932.871094
594.654297	54220.289063
593.386719	54430.609375
592.121094	54552.035156
590.853516	55375.820313
589.585938	55887.593750
588.318359	55728.585938
587.050781	56015.285156
585.783203	56404.386719
584.513672	56688.859375
583.246094	56750.527344
581.976563	57103.773438
580.707031	57549.460938
579.437500	57825.593750
578.167969	58438.332031
576.898438	58229.855469
575.628906	58253.726563
574.359375	58620.007813
573.087891	58691.007813
571.816406	59186.886719
570.546875	59230.203125
569.275391	59464.238281
568.003906	59391.480469
566.730469	59499.582031
565.458984	59762.894531
564.187500	59833.542969
562.914063	59839.335938
561.640625	60263.464844
560.367188	60153.304688
559.095703	59915.574219
557.820313	60639.750000
556.546875	60333.320313
555.273438	60254.613281
553.998047	60187.703125
552.724609	60540.546875
551.449219	60191.226563
550.173828	60932.109375
548.898438	60667.128906
547.623047	60853.000000
546.347656	60801.710938
545.070313	61116.769531
543.794922	60955.757813
542.517578	61219.738281
541.240234	60336.328125
539.962891	61169.933594
538.685547	60825.066406
537.408203	61217.992188
536.130859	61031.699219
534.851563	61389.214844
533.574219	61758.320313
532.294922	61507.503906
531.015625	61542.175781
529.736328	62055.636719
528.457031	61275.390625
527.177734	62019.210938
525.898438	61502.949219
524.617188	61490.707031
523.337891	62038.796875
522.056641	61975.691406
520.775391	62486.378906
519.494141	62438.816406
518.212891	62516.117188
516.931641	62513.421875
515.648438	62945.582031
514.367188	63375.617188
513.083984	63140.777344
511.800781	63445.867188
510.517578	63452.714844
509.234375	63307.605469
507.951172	63127.488281
506.667969	63264.859375
505.382813	63555.976563
504.099609	63959.878906
502.814453	63941.296875
501.529297	63827.378906
500.244141	63550.085938
498.958984	63749.429688
497.673828	63697.835938
496.388672	63671.535156
495.101563	64045.671875
493.816406	63918.242188
492.529297	64255.257813
491.242188	63869.460938
489.955078	63767.386719
488.667969	63313.867188
487.378906	63928.359375
486.091797	63638.035156
484.802734	63363.351563
483.515625	62968.472656
482.226563	62903.546875
480.937500	63061.691406
479.648438	62895.925781
478.359375	62288.175781
477.068359	62260.253906
475.779297	61914.500000
474.488281	61875.035156
473.199219	62234.656250
471.908203	61848.433594
470.617188	61199.000000
469.326172	61289.417969
468.033203	61226.871094
466.742188	61148.867188
465.451172	60517.496094
464.158203	60451.265625
462.865234	60118.140625
461.572266	60891.281250
460.279297	60420.925781
458.986328	60397.285156
457.693359	59364.816406
456.398438	59586.785156
455.105469	59451.269531
453.810547	59715.625000
452.515625	58823.140625
451.220703	58911.816406
449.925781	59073.804688
448.630859	59127.652344
447.335938	59231.640625
446.039063	59173.535156
444.742188	58961.152344
443.447266	59070.890625
442.150391	58783.414063
440.853516	59340.351563
439.556641	58829.371094
438.257813	58981.433594
436.960938	58576.679688
435.662109	58653.609375
434.365234	58607.257813
433.066406	58312.558594
431.767578	58306.718750
430.468750	58171.929688
429.169922	58450.894531
427.869141	58264.183594
426.570313	58327.593750
425.269531	58465.972656
423.968750	58317.820313
422.667969	57919.828125
421.367188	58279.218750
420.066406	58281.062500
418.765625	57806.464844
417.464844	58386.542969
416.162109	57942.835938
414.859375	57773.863281
413.558594	57343.890625
412.255859	57610.757813
410.953125	57819.957031
409.648438	58034.824219
408.345703	57833.382813
407.042969	57411.488281
405.738281	57377.054688
404.433594	57258.289063
403.128906	57095.488281
401.824219	57212.511719
400.519531	56616.816406
399.214844	56454.234375
397.908203	56835.582031
396.603516	56422.203125
395.296875	56504.777344
393.990234	55967.226563
392.685547	56197.195313
391.376953	56027.230469
390.070313	56503.835938
388.763672	56110.132813
387.455078	56018.671875
386.148438	55858.433594
384.839844	55444.066406
383.531250	55685.273438
382.222656	55762.085938
380.914063	55863.699219
379.605469	55690.273438
378.294922	55356.535156
376.986328	55729.230469
375.675781	55435.695313
374.365234	55499.101563
373.056641	55694.121094
371.744141	55587.691406
370.433594	55191.429688
369.123047	55413.085938
367.810547	55436.394531
366.500000	55453.980469
365.187500	55271.476563
363.875000	55409.105469
362.562500	55516.207031
361.250000	55272.855469
359.937500	55429.441406
358.623047	55555.503906
357.310547	55635.839844
355.996094	55267.066406
354.681641	55589.042969
353.369141	55009.289063
352.052734	55393.945313
350.738281	55504.648438
349.423828	55434.718750
348.107422	55182.351563
346.792969	55122.011719
345.476563	55700.046875
344.160156	55312.914063
342.843750	55119.644531
341.527344	55490.371094
340.210938	55164.257813
338.892578	55149.539063
337.576172	55326.480469
336.257813	54683.753906
334.939453	54980.222656
333.621094	55291.742188
332.302734	54626.648438
330.984375	54701.148438
329.666016	54663.792969
328.345703	54793.210938
327.027344	54278.414063
325.707031	54476.046875
324.386719	54094.082031
323.066406	54369.308594
321.746094	54943.531250
320.425781	54264.542969
319.103516	54602.015625
317.783203	54362.300781
316.460938	54084.851563
315.138672	54565.890625
313.816406	54710.171875
312.494141	54149.238281
311.171875	54771.742188
309.849609	54709.914063
308.525391	54559.304688
307.203125	54992.460938
305.878906	54792.753906
304.554688	54721.523438
303.230469	55156.277344
301.906250	55468.171875
300.582031	55238.332031
299.255859	54910.472656
297.931641	55139.226563
296.605469	55505.574219
295.279297	55809.546875
293.953125	55913.562500
292.626953	55591.546875
291.300781	55665.414063
289.974609	55498.074219
288.646484	55492.808594
287.320313	55570.417969
285.992188	55992.593750
284.664063	56111.492188
283.335938	55789.882813
282.007813	55891.835938
280.677734	55655.066406
279.349609	56368.398438
278.021484	55902.167969
276.691406	55958.890625
275.361328	56030.628906
274.031250	56012.117188
272.701172	55843.261719
271.371094	55992.019531
270.039063	55999.828125
268.708984	55960.671875
267.376953	55863.320313
266.046875	55919.964844
264.714844	55993.480469
263.382813	56571.824219
262.050781	56470.675781
260.716797	56579.687500
259.384766	56677.406250
258.050781	56647.562500
256.718750	56565.230469
