#Wave		#Intensity
1438.080078	8943.027344
1436.974609	8850.365234
1435.869141	8728.916992
1434.761719	8828.915039
1433.654297	8691.706055
1432.546875	8595.200195
1431.441406	8873.541992
1430.333984	8646.104492
1429.224609	8836.306641
1428.117188	8780.466797
1427.009766	8781.051758
1425.900391	8768.103516
1424.792969	8725.839844
1423.683594	8737.710938
1422.574219	8936.698242
1421.466797	8736.645508
1420.357422	8888.231445
1419.248047	8787.404297
1418.136719	8693.374023
1417.027344	8883.172852
1415.917969	8705.839844
1414.806641	8803.254883
1413.697266	8693.536133
1412.585938	8772.911133
1411.474609	8798.251953
1410.363281	8774.088867
1409.251953	8612.724609
1408.140625	8631.335938
1407.027344	8739.878906
1405.916016	8868.614258
1404.804688	8869.185547
1403.691406	8737.170898
1402.578125	8953.458984
1401.466797	8846.188477
1400.353516	8862.485352
1399.240234	8903.477539
1398.125000	9011.807617
1397.011719	9010.107422
1395.898438	8804.181641
1394.783203	8786.815430
1393.669922	8594.469727
1392.554688	8761.074219
1391.439453	8844.640625
1390.326172	8789.164063
1389.210938	8812.167969
1388.093750	8658.101563
1386.978516	8564.597656
1385.863281	8623.478516
1384.746094	8756.257813
1383.630859	8754.612305
1382.513672	8804.467773
1381.398438	8529.684570
1380.281250	8606.423828
1379.164063	8600.332031
1378.046875	8793.379883
1376.929688	8726.853516
1375.810547	8711.795898
1374.693359	8676.618164
1373.574219	8701.821289
1372.457031	8675.599609
1371.337891	8660.563477
1370.218750	8643.298828
1369.099609	8702.000977
1367.980469	8695.903320
1366.861328	8625.041992
1365.742188	8989.622070
1364.623047	8686.555664
1363.501953	8622.431641
1362.380859	8732.400391
1361.261719	8750.848633
1360.140625	8903.137695
1359.019531	8783.262695
1357.898438	8716.951172
1356.777344	8866.932617
1355.656250	8773.880859
1354.533203	8776.699219
1353.412109	8893.161133
1352.291016	8942.741211
1351.167969	8725.007813
1350.044922	9028.486328
1348.921875	8793.003906
1347.798828	8733.482422
1346.675781	8742.982422
1345.552734	8979.469727
1344.429688	8919.946289
1343.304688	8933.855469
1342.181641	8772.051758
1341.056641	8930.526367
1339.933594	8873.280273
1338.808594	8951.652344
1337.683594	8912.203125
1336.558594	8952.763672
1335.433594	8851.122070
1334.306641	9087.149414
1333.181641	8932.220703
1332.056641	8954.984375
1330.929688	8900.038086
1329.802734	9033.779297
1328.677734	8958.866211
1327.550781	9003.795898
1326.423828	8999.904297
1325.296875	9040.373047
1324.167969	8921.164063
1323.041016	9003.757813
1321.914063	8991.001953
1320.785156	9055.822266
1319.656250	9051.924805
1318.529297	8963.841797
1317.400391	9004.264648
1316.271484	8922.866211
1315.142578	9003.137695
1314.013672	8937.266602
1312.882813	8935.609375
1311.753906	8984.851563
1310.623047	8947.784180
1309.494141	8937.277344
1308.363281	8911.291016
1307.232422	8854.355469
1306.101563	8784.174805
1304.970703	8879.812500
1303.839844	8924.581055
1302.708984	8889.782227
1301.576172	8967.671875
1300.445313	9052.159180
1299.312500	8820.798828
1298.181641	8799.292969
1297.048828	8910.257813
1295.916016	8866.669922
1294.783203	8666.411133
1293.650391	8781.750977
1292.517578	8713.944336
1291.382813	9032.153320
1290.250000	8847.447266
1289.115234	8649.581055
1287.982422	8848.585938
1286.847656	8902.050781
1285.712891	8754.966797
1284.578125	8685.049805
1283.443359	8905.927734
1282.308594	8739.103516
1281.173828	8708.863281
1280.037109	8795.318359
1278.902344	8602.191406
1277.765625	8734.849609
1276.628906	8937.871094
1275.494141	8777.824219
1274.357422	8800.398438
1273.220703	8631.639648
1272.082031	8735.585938
1270.945313	8742.767578
1269.808594	8725.768555
1268.669922	8803.269531
1267.533203	8775.280273
1266.394531	8707.760742
1265.255859	8750.081055
1264.117188	8748.466797
1262.978516	8702.943359
1261.839844	8764.997070
1260.701172	8910.424805
1259.562500	8700.325195
1258.421875	8694.333984
1257.283203	8600.605469
1256.142578	8776.659180
1255.001953	8860.555664
1253.861328	8869.883789
1252.720703	8734.546875
1251.580078	8835.935547
1250.439453	8851.835938
1249.298828	8679.334961
1248.156250	8815.721680
1247.015625	8969.576172
1245.873047	8821.232422
1244.730469	8902.791016
1243.589844	8844.247070
1242.447266	9000.170898
1241.304688	8768.792969
1240.160156	9086.541992
1239.017578	8947.086914
1237.875000	8855.789063
1236.730469	9129.621094
1235.587891	8920.289063
1234.443359	8857.456055
1233.298828	9111.471680
1232.154297	8856.380859
1231.009766	9040.408203
1229.865234	9082.419922
1228.720703	9008.697266
1227.576172	9028.869141
1226.429688	8990.104492
1225.285156	9204.487305
1224.138672	9132.976563
1222.992188	9030.953125
1221.845703	9031.472656
1220.699219	9005.825195
1219.552734	9220.006836
1218.406250	9181.254883
1217.259766	9105.466797
1216.111328	9119.044922
1214.964844	9154.404297
1213.816406	9178.859375
1212.667969	9192.415039
1211.519531	9118.871094
1210.371094	9197.743164
1209.222656	9304.880859
1208.074219	9185.656250
1206.925781	9281.876953
1205.775391	9267.118164
1204.626953	9202.339844
1203.476563	9174.553711
1202.328125	9298.968750
1201.177734	9258.131836
1200.027344	9271.643555
1198.876953	9287.322266
1197.726563	9429.005859
1196.574219	9377.311523
1195.423828	9395.133789
1194.271484	9380.378906
1193.121094	9285.301758
1191.968750	9331.347656
1190.816406	9457.673828
1189.664063	9403.860352
1188.511719	9337.049805
1187.359375	9415.585938
1186.207031	9353.134766
1185.054688	9524.871094
1183.900391	9455.917969
1182.748047	9380.488281
1181.593750	9307.252930
1180.439453	9487.537109
1179.285156	9531.283203
1178.130859	9468.888672
1176.976563	9566.755859
1175.822266	9441.591797
1174.667969	9584.885742
1173.511719	9630.736328
1172.357422	9429.894531
1171.201172	9661.809570
1170.044922	9517.274414
1168.888672	9684.208984
1167.732422	9678.104492
1166.576172	9561.748047
1165.419922	9581.604492
1164.263672	9664.123047
1163.105469	9798.465820
1161.949219	9820.426758
1160.791016	9699.830078
1159.632813	9866.482422
1158.474609	10028.755859
1157.318359	9953.517578
1156.158203	9841.616211
1155.000000	9852.753906
1153.841797	9937.240234
1152.683594	10125.233398
1151.523438	10026.321289
1150.363281	10110.728516
1149.205078	10016.166016
1148.044922	10281.602539
1146.884766	10240.919922
1145.724609	10351.079102
1144.564453	10232.843750
1143.402344	10228.807617
1142.242188	10366.902344
1141.082031	10319.780273
1139.919922	10315.728516
1138.757813	10660.350586
1137.595703	10763.833008
1136.433594	10854.367188
1135.271484	10805.044922
1134.109375	10652.505859
1132.947266	10839.774414
1131.785156	10827.029297
1130.621094	10984.101563
1129.458984	11093.834961
1128.294922	11162.701172
1127.130859	11311.030273
1125.966797	11057.637695
1124.802734	11321.898438
1123.638672	11188.836914
1122.474609	11556.019531
1121.308594	11547.452148
1120.144531	11686.959961
1118.978516	11867.181641
1117.814453	11712.687500
1116.648438	11828.493164
1115.482422	11682.639648
1114.316406	11954.918945
1113.150391	11839.105469
1111.984375	11963.373047
1110.816406	12068.309570
1109.650391	12239.621094
1108.482422	12145.258789
1107.316406	12348.616211
1106.148438	12479.096680
1104.980469	12376.176758
1103.812500	12720.646484
1102.644531	12818.883789
1101.476563	12730.934570
1100.306641	12705.054688
1099.138672	12865.265625
1097.968750	12963.400391
1096.800781	13181.231445
1095.630859	13103.981445
1094.460938	13242.625000
1093.291016	13447.459961
1092.121094	13585.988281
1090.949219	13530.078125
1089.779297	13713.388672
1088.609375	13623.309570
1087.437500	13678.437500
1086.267578	13754.890625
1085.095703	14066.068359
1083.923828	13865.034180
1082.751953	14205.942383
1081.580078	14469.938477
1080.408203	14262.540039
1079.234375	14392.100586
1078.062500	14636.726563
1076.888672	14702.226563
1075.716797	14763.440430
1074.542969	15014.251953
1073.369141	14947.572266
1072.195313	14895.824219
1071.021484	15169.893555
1069.847656	15107.477539
1068.671875	15260.073242
1067.498047	15476.459961
1066.322266	15603.395508
1065.148438	15623.912109
1063.972656	15597.625000
1062.796875	15777.631836
1061.621094	15864.015625
1060.445313	15854.703125
1059.269531	16187.594727
1058.091797	16407.732422
1056.916016	16298.460938
1055.738281	16433.523438
1054.562500	16570.658203
1053.384766	16728.976563
1052.207031	16638.832031
1051.029297	16986.000000
1049.851563	17086.847656
1048.673828	17102.779297
1047.494141	17171.744141
1046.316406	17331.890625
1045.136719	17290.505859
1043.958984	17461.171875
1042.779297	17576.652344
1041.599609	17762.037109
1040.419922	17803.248047
1039.240234	17910.123047
1038.060547	17976.708984
1036.878906	17981.847656
1035.699219	18114.039063
1034.517578	18307.580078
1033.337891	18213.160156
1032.156250	18622.484375
1030.974609	18377.800781
1029.792969	18924.457031
1028.611328	19054.205078
1027.427734	18968.189453
1026.246094	18962.552734
1025.064453	19145.070313
1023.880859	18839.257813
1022.697266	19218.263672
1021.515625	19153.417969
1020.332031	19266.046875
1019.148438	19515.919922
1017.962891	19655.890625
1016.779297	19574.117188
1015.595703	19942.003906
1014.410156	20007.943359
1013.226563	20588.734375
1012.041016	20011.050781
1010.855469	19880.765625
1009.669922	19706.240234
1008.484375	20069.466797
1007.298828	19831.722656
1006.113281	20055.673828
1004.925781	20068.800781
1003.740234	20282.085938
1002.552734	20379.427734
1001.367188	20221.876953
1000.179688	20131.771484
998.992188	20357.513672
997.804688	20385.296875
996.617188	20124.730469
995.427734	20459.765625
994.240234	20365.486328
993.050781	20374.310547
991.863281	20465.150391
990.673828	20436.101563
989.484375	20598.371094
988.294922	20441.087891
987.105469	20575.974609
985.916016	20778.046875
984.726563	20435.949219
983.535156	20417.433594
982.345703	20266.625000
981.154297	20271.238281
979.962891	20538.246094
978.771484	20431.568359
977.580078	20396.277344
976.388672	20497.365234
975.197266	20447.386719
974.005859	20424.691406
972.812500	20343.291016
971.621094	20383.511719
970.427734	20534.806641
969.234375	20436.662109
968.041016	20342.744141
966.847656	20395.498047
965.654297	20289.054688
964.460938	20329.232422
963.267578	20111.871094
962.072266	20114.386719
960.876953	20286.423828
959.683594	20598.591797
958.488281	20439.917969
957.292969	20367.062500
956.097656	20791.966797
954.902344	20334.337891
953.707031	20407.876953
952.509766	20312.083984
951.314453	20299.916016
950.117188	20304.466797
948.919922	20520.001953
947.722656	20480.646484
946.525391	20234.572266
945.328125	20464.609375
944.130859	20078.773438
942.933594	20415.187500
941.734375	20261.117188
940.537109	20355.365234
939.337891	20193.017578
938.138672	20433.220703
936.939453	20091.603516
935.740234	20344.240234
934.541016	20277.888672
933.341797	20274.076172
932.142578	20324.435547
930.941406	20162.298828
929.742188	20191.828125
928.541016	20185.947266
927.339844	20171.740234
926.138672	20020.154297
924.937500	19866.544922
923.736328	20016.779297
922.535156	19927.716797
921.332031	19994.681641
920.130859	19984.677734
918.927734	20091.107422
917.724609	19823.316406
916.523438	19813.345703
915.320313	20112.998047
914.117188	20038.568359
912.912109	19787.599609
911.708984	19854.480469
910.505859	20037.613281
909.300781	19815.847656
908.095703	19677.191406
906.892578	19665.175781
905.687500	19557.720703
904.482422	19510.462891
903.277344	19452.853516
902.070313	19241.808594
900.865234	19211.220703
899.658203	19261.486328
898.453125	19338.673828
897.246094	19221.050781
896.039063	18937.732422
894.832031	18952.794922
893.625000	18971.990234
892.417969	19262.419922
891.210938	19002.074219
890.001953	18905.339844
888.794922	18738.279297
887.585938	18869.216797
886.376953	18588.451172
885.167969	18663.521484
883.958984	18813.005859
882.750000	18383.550781
881.541016	18220.906250
880.332031	18289.785156
879.121094	18141.679688
877.912109	17983.300781
876.701172	18004.675781
875.490234	17984.740234
874.279297	17797.572266
873.068359	17810.708984
871.857422	17807.330078
870.646484	17523.312500
869.433594	17713.917969
868.222656	17555.849609
867.009766	17305.035156
865.796875	17507.941406
864.583984	17448.953125
863.371094	17245.705078
862.158203	17361.951172
860.945313	16979.541016
859.730469	17048.412109
858.517578	16936.011719
857.302734	17105.761719
856.089844	16758.687500
854.875000	16681.394531
853.660156	16828.455078
852.445313	16755.292969
851.230469	16548.435547
850.013672	16446.554688
848.798828	16585.318359
847.582031	16337.486328
846.367188	16225.421875
845.150391	16355.922852
843.933594	16243.895508
842.716797	16296.269531
841.500000	16171.969727
840.283203	15969.674805
839.064453	16128.839844
837.847656	16138.080078
836.628906	16379.251953
835.410156	16179.119141
834.191406	16130.891602
832.972656	15832.415039
831.753906	15825.289063
830.535156	15898.136719
829.316406	16036.561523
828.095703	16027.347656
826.876953	15956.653320
825.656250	15818.367188
824.435547	15884.995117
823.214844	16025.333008
821.994141	16143.089844
820.773438	16074.482422
819.552734	16022.276367
818.330078	15847.290039
817.109375	15746.035156
815.886719	15894.415039
814.666016	15885.234375
813.443359	15994.670898
812.220703	15862.790039
810.996094	15882.237305
809.773438	15815.832031
808.550781	15861.843750
807.326172	15856.758789
806.103516	15872.102539
804.878906	16001.810547
803.654297	15857.844727
802.429688	16107.956055
801.205078	16033.422852
799.980469	16056.875000
798.755859	15915.044922
797.529297	15852.828125
796.304688	16047.625000
795.078125	16134.266602
793.851563	15984.371094
792.625000	16042.451172
791.398438	16137.193359
790.171875	16068.885742
788.945313	16016.901367
787.716797	16174.732422
786.490234	16071.833008
785.261719	15905.853516
784.033203	16047.326172
782.804688	16086.978516
781.576172	16171.381836
780.347656	16058.403320
779.119141	16041.071289
777.890625	15950.530273
776.660156	16144.690430
775.429688	16296.083008
774.201172	16132.370117
772.970703	16056.101563
771.740234	15961.575195
770.509766	16068.191406
769.277344	16270.220703
768.046875	16214.285156
766.816406	16127.917969
765.583984	16348.083984
764.351563	16188.662109
763.119141	16433.078125
761.886719	16326.443359
760.654297	16461.208984
759.421875	15991.623047
758.189453	16142.620117
756.955078	16250.988281
755.722656	16160.699219
754.488281	16254.835938
753.253906	16227.381836
752.019531	16266.778320
750.785156	16306.158203
749.550781	16177.469727
748.316406	16307.944336
747.080078	16242.044922
745.845703	16283.417969
744.609375	16268.125977
743.373047	16347.908203
742.136719	16269.913086
740.900391	16377.968750
739.664063	16449.593750
738.427734	16418.107422
737.189453	16372.488281
735.953125	16197.579102
734.714844	16349.978516
733.476563	16207.453125
732.240234	16111.423828
731.001953	16156.749023
729.761719	16500.785156
728.523438	16303.849609
727.285156	16377.354492
726.044922	16345.932617
724.806641	16058.377930
723.566406	16438.390625
722.326172	16277.940430
721.085938	16282.839844
719.845703	16180.924805
718.603516	16234.196289
717.363281	16259.243164
716.123047	16352.758789
714.880859	16418.044922
713.638672	16414.851563
712.396484	16282.827148
711.154297	16420.537109
709.912109	16198.013672
708.669922	16402.074219
707.427734	16368.708984
706.183594	16399.707031
704.939453	16271.855469
703.697266	16441.564453
702.453125	16337.868164
701.208984	16324.636719
699.964844	16450.033203
698.718750	16374.513672
697.474609	16122.296875
696.230469	16201.474609
694.984375	16216.380859
693.738281	16341.669922
692.492188	16557.210938
691.246094	16531.910156
690.000000	16651.042969
688.753906	16599.658203
687.507813	16688.652344
686.259766	16516.996094
685.013672	16479.695313
683.765625	16524.570313
682.517578	16314.973633
681.269531	16676.361328
680.021484	16568.957031
678.773438	16485.623047
677.523438	16532.447266
676.275391	16477.171875
675.025391	16766.125000
673.775391	16658.802734
672.527344	16567.523438
671.277344	16472.279297
670.025391	16527.044922
668.775391	16495.820313
667.525391	16572.542969
666.273438	16773.142578
665.023438	16608.011719
663.771484	16670.681641
662.519531	16591.517578
661.267578	16670.138672
660.015625	16535.101563
658.763672	16565.794922
657.509766	16776.087891
656.257813	16649.087891
655.003906	16587.968750
653.751953	16608.648438
652.498047	16944.398438
651.244141	16620.076172
649.990234	16640.734375
648.734375	16840.751953
647.480469	16703.941406
646.224609	16848.085938
644.970703	16711.324219
643.714844	16731.939453
642.458984	16688.832031
641.203125	16432.740234
639.947266	16572.808594
638.691406	16647.156250
637.433594	16560.326172
636.177734	16736.087891
634.919922	16693.023438
633.662109	16488.921875
632.406250	16710.312500
631.146484	16653.361328
629.888672	16528.871094
628.630859	16764.025391
627.373047	16772.644531
626.113281	16731.609375
624.853516	16803.765625
623.595703	16762.738281
622.335938	16856.691406
621.076172	16829.558594
619.816406	16808.388672
618.554688	17225.599609
617.294922	16900.925781
616.033203	17121.652344
614.773438	17270.925781
613.511719	17346.802734
612.250000	17503.896484
610.988281	17411.287109
609.726563	17447.470703
608.462891	17770.808594
607.201172	17634.636719
605.937500	17868.720703
604.675781	17805.814453
603.412109	18112.990234
602.148438	17982.789063
600.884766	18002.976563
599.621094	18262.462891
598.355469	18288.515625
597.091797	18276.996094
595.826172	18476.972656
594.562500	18785.560547
593.296875	18681.082031
592.031250	18653.687500
590.765625	19046.976563
589.498047	18735.171875
588.232422	19031.550781
586.966797	19225.171875
585.699219	18905.619141
584.431641	19004.480469
583.164063	19269.003906
581.896484	19320.416016
580.628906	19638.011719
579.361328	19488.234375
578.093750	19409.476563
576.824219	19482.494141
575.554688	19679.611328
574.287109	19565.398438
573.017578	20040.125000
571.748047	19681.708984
570.478516	19813.656250
569.207031	19959.330078
567.937500	19811.712891
566.666016	19774.339844
565.396484	19898.291016
564.125000	19933.683594
562.853516	20067.384766
561.582031	20193.166016
560.310547	20167.541016
559.037109	20082.966797
557.765625	20350.138672
556.492188	19963.029297
555.220703	20008.173828
553.947266	20261.451172
552.673828	19984.531250
551.400391	20190.599609
550.126953	19925.578125
548.851563	20002.072266
547.578125	20096.191406
546.302734	20249.113281
545.027344	20098.021484
543.753906	20180.296875
542.478516	20174.332031
541.201172	20315.351563
539.925781	20383.816406
538.650391	20530.615234
537.373047	20420.771484
536.097656	20150.392578
534.820313	20265.820313
533.542969	20402.732422
532.265625	20328.224609
530.988281	20451.371094
529.708984	20562.730469
528.431641	20488.230469
527.152344	20550.646484
525.875000	20521.146484
524.595703	20636.306641
523.316406	20700.607422
522.037109	20811.775391
520.757813	20659.166016
519.476563	20932.412109
518.197266	21197.736328
516.916016	21033.423828
515.636719	20966.775391
514.355469	21210.462891
513.074219	20948.677734
511.792969	21118.136719
510.509766	21186.103516
509.228516	21203.339844
507.947266	21320.001953
506.664063	21456.109375
505.380859	21385.576172
504.097656	21420.291016
502.814453	21632.271484
501.531250	21766.257813
500.248047	21288.710938
498.962891	21473.330078
497.679688	21418.443359
496.394531	21673.025391
495.109375	21680.384766
493.824219	21619.650391
492.539063	21494.750000
491.253906	21441.853516
489.968750	21768.109375
488.681641	21715.175781
487.396484	21557.312500
486.109375	21760.931641
484.822266	21871.216797
483.535156	21635.720703
482.248047	21553.732422
480.960938	21580.501953
479.671875	21574.259766
478.384766	21550.552734
477.095703	21534.615234
475.806641	21489.582031
474.517578	21502.755859
473.228516	21432.535156
471.939453	21294.482422
470.650391	21342.576172
469.359375	21357.701172
468.070313	21221.679688
466.779297	21416.992188
465.488281	21482.451172
464.197266	21429.753906
462.906250	21367.396484
461.615234	21301.189453
460.324219	21474.998047
459.031250	21366.224609
457.738281	21340.683594
456.447266	21731.007813
455.154297	21401.789063
453.861328	21250.578125
452.568359	21292.732422
451.273438	21512.675781
449.980469	21523.843750
448.685547	21873.089844
447.392578	21787.601563
446.097656	22003.404297
444.802734	21906.339844
443.507813	21981.113281
442.210938	22071.296875
440.916016	22184.599609
439.621094	22101.074219
438.324219	22395.632813
437.027344	22456.732422
435.730469	22153.402344
434.433594	22567.287109
433.136719	22751.658203
431.839844	22766.386719
430.542969	22962.203125
429.244141	23105.931641
427.945313	23162.945313
426.648438	23075.533203
425.349609	23144.076172
424.050781	23405.052734
422.750000	23423.472656
421.451172	23576.552734
420.152344	23698.794922
418.851563	23645.988281
417.550781	23706.640625
416.250000	23922.974609
414.949219	23827.869141
413.648438	24272.751953
412.347656	23827.964844
411.044922	24080.591797
409.744141	24285.107422
408.441406	24276.421875
407.138672	24225.505859
405.837891	24197.640625
404.533203	24259.970703
403.230469	24078.630859
401.927734	24112.187500
400.623047	24120.800781
399.320313	24008.617188
398.015625	24151.429688
396.710938	24083.365234
395.406250	24113.050781
394.101563	23705.923828
392.796875	23927.210938
391.490234	23688.804688
390.185547	23624.724609
388.878906	23679.353516
387.572266	23527.259766
386.267578	23359.919922
384.958984	23179.251953
383.652344	23067.515625
382.345703	23231.199219
381.037109	23108.023438
379.730469	22923.724609
378.421875	22701.275391
377.113281	22513.308594
375.804688	22728.519531
374.496094	22638.033203
373.187500	22450.189453
371.876953	22292.966797
370.568359	22511.865234
369.257813	22261.173828
367.947266	21888.460938
366.638672	22055.796875
365.326172	21778.640625
364.015625	22243.423828
362.705078	21920.582031
361.392578	21750.367188
360.082031	21547.820313
358.769531	21469.210938
357.457031	21472.552734
356.144531	21580.652344
354.832031	21477.324219
353.519531	21353.093750
352.205078	20888.167969
350.892578	21232.294922
349.578125	20893.164063
348.263672	20656.902344
346.949219	20960.923828
345.634766	20781.791016
344.320313	20730.117188
343.005859	20879.964844
341.689453	20398.765625
340.375000	20432.705078
339.058594	20445.734375
337.742188	20491.048828
336.425781	20642.691406
335.109375	20144.925781
333.792969	20120.035156
332.474609	20190.048828
331.158203	20115.820313
329.839844	20070.080078
328.521484	19969.349609
327.203125	19641.089844
325.884766	19847.640625
324.566406	19830.423828
323.246094	20008.423828
321.927734	19657.677734
320.607422	19858.376953
319.287109	20066.572266
317.968750	19905.398438
316.648438	19801.089844
315.326172	19691.144531
314.005859	19768.613281
312.685547	19721.162109
311.363281	19813.728516
310.041016	19862.753906
308.718750	19724.535156
307.398438	19752.759766
306.074219	19937.873047
304.751953	19964.154297
303.429688	19954.519531
302.105469	20103.585938
300.783203	20171.371094
299.458984	20135.261719
298.134766	20197.349609
296.810547	20299.054688
295.486328	20410.156250
294.160156	20058.896484
292.835938	20245.466797
291.509766	20364.056641
290.185547	20373.218750
288.859375	20159.884766
287.533203	20295.386719
286.207031	20383.716797
284.878906	20468.242188
283.552734	20530.125000
282.224609	20251.042969
280.898438	20570.953125
279.570313	20378.585938
278.242188	20254.068359
276.914063	20487.207031
275.585938	20449.277344
274.255859	20488.500000
272.927734	20486.324219
271.597656	20627.078125
270.269531	20508.298828
268.939453	20541.837891
267.609375	20297.191406
266.277344	20507.402344
264.947266	20629.224609
263.617188	20480.505859
262.285156	20399.455078
260.955078	20361.623047
259.623047	20534.066406
258.291016	20635.117188
256.958984	20578.494141
255.625000	20550.039063
254.292969	20598.501953
252.960938	20575.679688
251.626953	20678.496094
250.292969	20678.164063
248.958984	20647.839844
247.625000	20939.855469
246.291016	20847.662109
244.957031	20942.832031
243.621094	20796.363281
242.287109	20854.054688
240.951172	21183.181641
239.615234	21283.824219
238.279297	21041.962891
236.943359	21228.662109
235.607422	21243.185547
234.269531	21267.054688
232.933594	21421.810547
231.595703	21400.767578
230.257813	21306.833984
228.921875	21265.263672
227.582031	21257.341797
226.244141	21410.080078
224.906250	21501.123047
223.566406	21280.281250
222.228516	21388.117188
220.888672	21482.843750
219.548828	21247.207031
218.208984	21364.316406
216.869141	21343.330078
215.529297	21357.791016
214.187500	21424.458984
212.847656	21118.218750
211.505859	21343.351563
210.164063	21376.439453
208.822266	21526.900391
207.480469	21541.310547
206.138672	21548.261719
204.796875	21598.042969
203.453125	21536.093750
202.111328	21481.615234
