#Wave		#Intensity
1438.080078	4895.273438
1436.974609	4845.552246
1435.869141	4799.435547
1434.761719	4845.962891
1433.654297	4824.710449
1432.546875	4857.665527
1431.441406	4877.061035
1430.333984	4867.102539
1429.224609	4773.637207
1428.117188	4716.313477
1427.009766	4699.622559
1425.900391	4809.260742
1424.792969	4857.963379
1423.683594	4881.843750
1422.574219	4802.009766
1421.466797	4852.940430
1420.357422	4827.229492
1419.248047	4765.477051
1418.136719	4755.562012
1417.027344	4786.192383
1415.917969	4704.216309
1414.806641	4795.634766
1413.697266	4817.236328
1412.585938	4904.098145
1411.474609	4756.906738
1410.363281	4830.248535
1409.251953	4712.368652
1408.140625	4790.188965
1407.027344	4706.088867
1405.916016	4808.609863
1404.804688	4812.195801
1403.691406	4844.994629
1402.578125	4754.208008
1401.466797	4964.468262
1400.353516	4871.447266
1399.240234	4845.827148
1398.125000	4838.177734
1397.011719	4909.094238
1395.898438	4986.717285
1394.783203	4846.660156
1393.669922	4872.667480
1392.554688	4799.974121
1391.439453	4920.167969
1390.326172	4820.587402
1389.210938	4884.689453
1388.093750	4816.531250
1386.978516	4759.603516
1385.863281	4743.024902
1384.746094	4775.733398
1383.630859	4723.324707
1382.513672	4700.045410
1381.398438	4748.415039
1380.281250	4731.854492
1379.164063	4795.865723
1378.046875	4696.515137
1376.929688	4675.500000
1375.810547	4721.592285
1374.693359	4669.272949
1373.574219	4871.856934
1372.457031	4732.348633
1371.337891	4791.806152
1370.218750	4703.759766
1369.099609	4798.946777
1367.980469	4746.672363
1366.861328	4678.784180
1365.742188	4823.045898
1364.623047	4688.194824
1363.501953	4787.759766
1362.380859	4697.598633
1361.261719	4779.275391
1360.140625	4698.072266
1359.019531	4623.591309
1357.898438	4834.574219
1356.777344	4726.652344
1355.656250	4814.934570
1354.533203	4809.577637
1353.412109	4739.602051
1352.291016	4718.666504
1351.167969	4775.699707
1350.044922	4750.311035
1348.921875	4827.356934
1347.798828	4804.194336
1346.675781	4767.685547
1345.552734	4831.333008
1344.429688	4703.608398
1343.304688	4820.633789
1342.181641	4810.838867
1341.056641	4754.349121
1339.933594	4942.445801
1338.808594	4801.482422
1337.683594	4936.160645
1336.558594	4821.915527
1335.433594	4696.604492
1334.306641	4831.227051
1333.181641	4723.728027
1332.056641	4747.273926
1330.929688	4879.591797
1329.802734	4767.704590
1328.677734	4746.845703
1327.550781	4745.963379
1326.423828	4745.081543
1325.296875	4784.123047
1324.167969	4787.669434
1323.041016	4786.779785
1321.914063	4843.525879
1320.785156	4818.247070
1319.656250	4892.692871
1318.529297	4838.613281
1317.400391	4782.338867
1316.271484	4728.299316
1315.142578	4727.422363
1314.013672	4808.457520
1312.882813	4761.083984
1311.753906	4815.526367
1310.623047	4792.507813
1309.494141	4760.648438
1308.363281	4735.436523
1307.232422	4741.193359
1306.101563	4658.509277
1304.970703	4635.540527
1303.839844	4871.167969
1302.708984	4803.973633
1301.576172	4772.153809
1300.445313	4669.659668
1299.312500	4609.165527
1298.181641	4743.006836
1297.048828	4697.975098
1295.916016	4714.764160
1294.783203	4665.340820
1293.650391	4823.343750
1292.517578	4754.063477
1291.382813	4587.760254
1290.250000	4730.252930
1289.115234	4564.015625
1287.982422	4724.095703
1286.847656	4610.816895
1285.712891	4587.928711
1284.578125	4758.931152
1283.443359	4641.303711
1282.308594	4675.684570
1281.173828	4566.923340
1280.037109	4643.135254
1278.902344	4567.437988
1277.765625	4487.366699
1276.628906	4537.146484
1275.494141	4659.506836
1274.357422	4583.861816
1273.220703	4607.206543
1272.082031	4546.990234
1270.945313	4671.456055
1269.808594	4547.510254
1268.669922	4388.449707
1267.533203	4556.818359
1266.394531	4628.469238
1265.255859	4625.418945
1264.117188	4615.782715
1262.978516	4485.396973
1261.839844	4587.739258
1260.701172	4663.707520
1259.562500	4597.019531
1258.421875	4583.008789
1257.283203	4610.679199
1256.142578	4552.809570
1255.001953	4587.053223
1253.861328	4647.591309
1252.720703	4732.217285
1251.580078	4597.666992
1250.439453	4609.966309
1249.298828	4589.401367
1248.156250	4713.399414
1247.015625	4662.165039
1245.873047	4709.474121
1244.730469	4741.442383
1243.589844	4701.173828
1242.447266	4717.813965
1241.304688	4730.072266
1240.160156	4799.198730
1239.017578	4748.014160
1237.875000	4635.622559
1236.730469	4671.935059
1235.587891	4754.135742
1234.443359	4665.844727
1233.298828	4612.545898
1232.154297	4679.419434
1231.009766	4787.768555
1229.865234	4686.432617
1228.720703	4740.155273
1227.576172	4791.675293
1226.429688	4744.958984
1225.285156	4759.361816
1224.138672	4623.214844
1222.992188	4729.252441
1221.845703	4708.753906
1220.699219	4806.014160
1219.552734	4798.589355
1218.406250	4708.335938
1217.259766	4652.985352
1216.111328	4776.331543
1214.964844	4718.810059
1213.816406	4792.000488
1212.667969	4867.341309
1211.519531	4639.999023
1210.371094	4730.578613
1209.222656	4688.354004
1208.074219	4709.253906
1206.925781	4782.364258
1205.775391	4798.888184
1204.626953	4758.855957
1203.476563	4927.598633
1202.328125	4661.442383
1201.177734	4760.579590
1200.027344	4731.450195
1198.876953	4765.348145
1197.726563	4744.918945
1196.574219	4880.894043
1195.423828	4938.634766
1194.271484	4779.215820
1193.121094	4728.404785
1191.968750	4844.747070
1190.816406	4778.750977
1189.664063	4697.590332
1188.511719	4772.655762
1187.359375	4802.144043
1186.207031	4773.069824
1185.054688	4806.883301
1183.900391	4838.516602
1182.748047	4904.816406
1181.593750	4763.060059
1180.439453	4909.513184
1179.285156	4811.131836
1178.130859	4877.387207
1176.976563	4887.317383
1175.822266	4843.119141
1174.667969	5006.738770
1173.511719	4785.068848
1172.357422	4710.619629
1171.201172	4835.231934
1170.044922	4929.515625
1168.888672	4919.958984
1167.732422	4737.427734
1166.576172	4794.925781
1165.419922	4848.080078
1164.263672	4983.333496
1163.105469	5036.433105
1161.949219	4929.655273
1160.791016	4848.834961
1159.632813	5137.308594
1158.474609	4972.276367
1157.318359	5003.741699
1156.158203	4907.858887
1155.000000	5051.532227
1153.841797	5061.390625
1152.683594	5002.219238
1151.523438	5018.552246
1150.363281	4976.660156
1149.205078	4984.368652
1148.044922	5041.649414
1146.884766	5012.706055
1145.724609	5147.528809
1144.564453	5217.673340
1143.402344	5201.636230
1142.242188	5189.911621
1141.082031	5270.774414
1139.919922	5263.346680
1138.757813	5171.981445
1137.595703	5341.030273
1136.433594	5303.471680
1135.271484	5298.193359
1134.109375	5333.780762
1132.947266	5384.406738
1131.785156	5493.062012
1130.621094	5393.172363
1129.458984	5471.697754
1128.294922	5612.507324
1127.130859	5568.506836
1125.966797	5612.588867
1124.802734	5607.260254
1123.638672	5604.080566
1122.474609	5650.277344
1121.308594	5614.895020
1120.144531	5667.510254
1118.978516	5805.928711
1117.814453	5862.779297
1116.648438	5720.143555
1115.482422	5622.592285
1114.316406	5853.107910
1113.150391	5849.885742
1111.984375	6005.262207
1110.816406	5944.156738
1109.650391	5861.649414
1108.482422	6004.084473
1107.316406	5998.694824
1106.148438	6158.181641
1104.980469	6086.398926
1103.812500	6245.809570
1102.644531	6165.476563
1101.476563	6164.339844
1100.306641	6253.051758
1099.138672	6333.175781
1097.968750	6338.422852
1096.800781	6223.936035
1095.630859	6280.505371
1094.460938	6424.682129
1093.291016	6414.949219
1092.121094	6462.905273
1090.949219	6598.423340
1089.779297	6768.062012
1088.609375	6651.506348
1087.437500	6599.040527
1086.267578	6738.701172
1085.095703	6713.981445
1083.923828	6783.155273
1082.751953	6820.303223
1081.580078	6801.979980
1080.408203	6847.640137
1079.234375	6891.150879
1078.062500	6902.668457
1076.888672	6944.020996
1075.716797	7089.775879
1074.542969	7160.905762
1073.369141	7208.576660
1072.195313	7060.288574
1071.021484	7035.560059
1069.847656	7308.902344
1068.671875	7288.393555
1067.498047	7304.071777
1066.322266	7389.962402
1065.148438	7354.556641
1063.972656	7555.265625
1062.796875	7526.221680
1061.621094	7646.026367
1060.445313	7555.325195
1059.269531	7607.063965
1058.091797	7675.784180
1056.916016	7740.228516
1055.738281	7760.039063
1054.562500	7764.974121
1053.384766	7873.958984
1052.207031	7868.254395
1051.029297	7915.620117
1049.851563	7827.138672
1048.673828	8073.955078
1047.494141	7983.354980
1046.316406	8102.781250
1045.136719	8194.592773
1043.958984	8286.370117
1042.779297	8303.914063
1041.599609	8283.298828
1040.419922	8425.867188
1039.240234	8295.058594
1038.060547	8321.059570
1036.878906	8419.062500
1035.699219	8557.263672
1034.517578	8629.778320
1033.337891	8488.466797
1032.156250	8607.528320
1030.974609	8694.804688
1029.792969	8627.606445
1028.611328	8702.154297
1027.427734	8647.666992
1026.246094	8772.928711
1025.064453	8857.977539
1023.880859	8805.603516
1022.697266	8924.425781
1021.515625	8882.622070
1020.332031	8961.247070
1019.148438	9113.765625
1017.962891	8886.118164
1016.779297	8895.023438
1015.595703	9068.577148
1014.410156	9073.222656
1013.226563	9128.508789
1012.041016	9052.969727
1010.855469	9184.175781
1009.669922	9256.281250
1008.484375	9174.432617
1007.298828	9233.863281
1006.113281	9015.041016
1004.925781	9076.584961
1003.740234	9228.707031
1002.552734	9296.506836
1001.367188	9341.113281
1000.179688	9303.574219
998.992188	9122.877930
997.804688	9285.372070
996.617188	9378.351563
995.427734	9290.329102
994.240234	9397.998047
993.050781	9169.070313
991.863281	9508.060547
990.673828	9352.791016
989.484375	9462.468750
988.294922	9342.996094
987.105469	9610.248047
985.916016	9314.296875
984.726563	9432.299805
983.535156	9186.899414
982.345703	9323.781250
981.154297	9460.611328
979.962891	9404.265625
978.771484	9312.261719
977.580078	9272.751953
976.388672	9338.154297
975.197266	9372.068359
974.005859	9345.150391
972.812500	9366.468750
971.621094	9157.171875
970.427734	9417.462891
969.234375	9308.824219
968.041016	9240.035156
966.847656	9093.761719
965.654297	9311.978516
964.460938	9326.988281
963.267578	9222.652344
962.072266	9319.309570
960.876953	9357.330078
959.683594	9179.807617
958.488281	9332.904297
957.292969	9117.800781
956.097656	9229.023438
954.902344	9227.293945
953.707031	9223.473633
952.509766	9311.621094
951.314453	9376.748047
950.117188	9134.711914
948.919922	9239.536133
947.722656	9196.031250
946.525391	9188.041016
945.328125	9069.400391
944.130859	9184.592773
942.933594	9291.393555
941.734375	9229.136719
940.537109	9221.144531
939.337891	9140.151367
938.138672	9130.091797
936.939453	9247.224609
935.740234	9137.084961
934.541016	9341.709961
933.341797	9152.404297
932.142578	9248.607422
930.941406	9151.045898
929.742188	9213.888672
928.541016	9158.014648
927.339844	9097.998047
926.138672	9164.976563
924.937500	9136.196289
923.736328	9174.010742
922.535156	9120.274414
921.332031	9160.156250
920.130859	8979.586914
918.927734	9173.338867
917.724609	9065.591797
916.523438	9144.940430
915.320313	9053.862305
914.117188	8904.645508
912.912109	8959.050781
911.708984	9007.205078
910.505859	9028.346680
909.300781	9066.087891
908.095703	9014.561523
906.892578	8963.053711
905.687500	8955.136719
904.482422	8905.733398
903.277344	8729.828125
902.070313	8873.337891
900.865234	8732.750000
899.658203	8845.110352
898.453125	8772.972656
897.246094	8628.337891
896.039063	8717.862305
894.832031	8492.508789
893.625000	8513.683594
892.417969	8748.116211
891.210938	8655.374023
890.001953	8579.223633
888.794922	8513.449219
887.585938	8487.009766
886.376953	8535.048828
885.167969	8444.499023
883.958984	8571.104492
882.750000	8385.479492
881.541016	8323.946289
880.332031	8243.836914
879.121094	8275.333984
877.912109	8193.196289
876.701172	8311.439453
875.490234	8276.822266
874.279297	8058.459961
873.068359	8007.387695
871.857422	8078.104492
870.646484	7876.410645
869.433594	7833.653320
868.222656	7910.548828
867.009766	7843.051758
865.796875	7957.030762
864.583984	7823.579590
863.371094	7659.261230
862.158203	7810.302246
860.945313	7839.722656
859.730469	7607.514160
858.517578	7729.642578
857.302734	7592.265137
856.089844	7722.584473
854.875000	7562.616699
853.660156	7674.368652
852.445313	7514.469727
851.230469	7611.786621
850.013672	7583.597656
848.798828	7395.015625
847.582031	7364.821777
846.367188	7515.538086
845.150391	7522.326660
843.933594	7457.191406
842.716797	7515.349609
841.500000	7448.185059
840.283203	7126.385254
839.064453	7367.317383
837.847656	7349.488281
836.628906	7387.083496
835.410156	7412.351563
834.191406	7412.987793
832.972656	7405.417969
831.753906	7172.244141
830.535156	7431.297363
829.316406	7274.062988
828.095703	7336.216309
826.876953	7330.715332
825.656250	7333.411621
824.435547	7098.466797
823.214844	7220.002441
821.994141	7310.773926
820.773438	7184.480957
819.552734	7248.611328
818.330078	7196.057617
817.109375	7000.284180
815.886719	7219.898438
814.666016	7222.606445
813.443359	7215.087402
812.220703	7273.001465
810.996094	7234.810059
809.773438	7221.159668
808.550781	7084.902344
807.326172	7093.759277
806.103516	7347.741699
804.878906	7172.732422
803.654297	7228.530762
802.429688	7174.062988
801.205078	7213.509277
799.980469	7312.123047
798.755859	7225.022461
797.529297	7258.314453
796.304688	7252.841309
795.078125	7279.996582
793.851563	7315.296387
792.625000	7303.698242
791.398438	7204.468262
790.171875	7196.969727
788.945313	7293.374023
787.716797	7214.570313
786.490234	7369.990234
785.261719	7268.804199
784.033203	7479.116699
782.804688	7263.970703
781.576172	7227.979004
780.347656	7230.655762
779.119141	7343.173828
777.890625	7423.107910
776.660156	7399.311035
775.429688	7239.315430
774.201172	7317.188965
772.970703	7344.228516
771.740234	7220.906250
770.509766	7371.866699
769.277344	7291.235840
768.046875	7269.522949
766.816406	7406.173828
765.583984	7345.879883
764.351563	7157.754883
763.119141	7347.101074
761.886719	7199.620605
760.654297	7202.286133
759.421875	7136.003418
758.189453	7365.754395
756.955078	7230.544434
755.722656	7405.467285
754.488281	7286.510742
753.253906	7378.292480
752.019531	7352.559082
750.785156	7345.061523
749.550781	7297.071777
748.316406	7530.480469
747.080078	7448.065430
745.845703	7252.363770
744.609375	7265.121094
743.373047	7314.282715
742.136719	7244.105469
740.900391	7343.800293
739.664063	7275.665039
738.427734	7328.826660
737.189453	7256.678223
735.953125	7370.433594
734.714844	7425.564453
733.476563	7331.221680
732.240234	7360.087402
731.001953	7320.301270
729.761719	7286.585449
728.523438	7404.235840
727.285156	7406.833496
726.044922	7496.172363
724.806641	7377.737305
723.566406	7364.205078
722.326172	7614.786133
721.085938	7502.442383
719.845703	7259.146973
718.603516	7279.899414
717.363281	7449.718750
716.123047	7331.450195
714.880859	7247.460449
713.638672	7495.706055
712.396484	7417.754883
711.154297	7494.801270
709.912109	7453.098633
708.669922	7459.694824
707.427734	7466.287598
706.183594	7444.723145
704.939453	7421.156250
703.697266	7351.362793
702.453125	7337.871582
701.208984	7416.818359
699.964844	7425.417969
698.718750	7434.013184
697.474609	7398.423340
696.230469	7425.090332
694.984375	7499.925781
693.738281	7504.483398
692.492188	7537.132813
691.246094	7513.592285
690.000000	7592.361816
688.753906	7344.200684
687.507813	7467.084473
686.259766	7481.663574
685.013672	7540.332520
683.765625	7362.511719
682.517578	7455.239746
681.269531	7489.839844
680.021484	7532.436523
678.773438	7731.202148
677.523438	7571.532715
676.275391	7542.029297
675.025391	7662.627930
673.775391	7479.054199
672.527344	7637.624512
671.277344	7576.128906
670.025391	7634.634766
668.775391	7453.207520
667.525391	7539.697754
666.273438	7488.259277
665.023438	7592.690430
663.771484	7581.214844
662.519531	7533.791504
661.267578	7596.215820
660.015625	7616.688477
658.763672	7525.369629
657.509766	7649.625000
656.257813	7602.231934
655.003906	7441.145508
653.751953	7489.549316
652.498047	7565.852051
651.244141	7668.043457
649.990234	7566.869629
648.734375	7515.559570
647.480469	7530.024902
646.224609	7634.132813
644.970703	7678.445313
643.714844	7629.143066
642.458984	7452.433105
641.203125	7590.313965
639.947266	7588.822266
638.691406	7366.456543
637.433594	7675.365234
636.177734	7729.550293
634.919922	7755.872070
633.662109	7573.411621
632.406250	7665.353516
631.146484	7614.157715
629.888672	7600.736816
628.630859	7571.426758
627.373047	7653.362793
626.113281	7645.898438
624.853516	7735.729004
623.595703	7567.451660
622.335938	7627.489258
621.076172	7532.721191
619.816406	7765.348145
618.554688	7825.310059
617.294922	7772.204590
616.033203	7740.930176
614.773438	7872.227539
613.511719	7727.968750
612.250000	7884.977051
610.988281	7746.715332
609.726563	7976.948730
608.462891	8052.613770
607.201172	8193.591797
605.937500	7999.944336
604.675781	7942.945313
603.412109	8030.428711
602.148438	8102.048828
600.884766	8132.099609
599.621094	8063.250977
598.355469	8281.144531
597.091797	8313.117188
595.826172	8327.288086
594.562500	8337.500000
593.296875	8472.182617
592.031250	8462.606445
590.765625	8235.783203
589.498047	8429.642578
588.232422	8562.223633
586.966797	8513.159180
585.699219	8578.573242
584.431641	8703.152344
583.164063	8553.480469
581.896484	8721.404297
580.628906	8759.117188
579.361328	8769.212891
578.093750	8909.397461
576.824219	8854.424805
575.554688	8870.405273
574.287109	8882.439453
573.017578	8937.796875
571.748047	8932.089844
570.478516	8959.852539
569.207031	8918.709961
567.937500	8970.079102
566.666016	8844.343750
565.396484	8887.837891
564.125000	9108.327148
562.853516	8945.274414
561.582031	8923.841797
560.310547	8971.213867
559.037109	8991.053711
557.765625	8908.711914
556.492188	9089.641602
555.220703	8861.968750
553.947266	8964.288086
552.673828	9044.968750
551.400391	8960.732422
550.126953	9070.818359
548.851563	9057.246094
547.578125	8951.476563
546.302734	9224.291016
545.027344	9096.958008
543.753906	9040.255859
542.478516	9144.311523
541.201172	9146.416016
539.925781	9179.869141
538.650391	9084.013672
537.373047	9095.919922
536.097656	9094.113281
534.820313	9143.211914
533.542969	9292.121094
532.265625	9323.544922
530.988281	9157.330078
529.708984	9071.389648
528.431641	9228.016602
527.152344	9122.540039
525.875000	9283.002930
524.595703	9275.293945
523.316406	9259.769531
522.037109	9293.099609
520.757813	9527.635742
519.476563	9392.923828
518.197266	9389.103516
516.916016	9428.237305
515.636719	9481.018555
514.355469	9483.036133
513.074219	9535.785156
511.792969	9432.443359
510.509766	9457.873047
509.228516	9504.743164
507.947266	9721.218750
506.664063	9633.514648
505.380859	9732.941406
504.097656	9647.216797
502.814453	9577.111328
501.531250	9637.534180
500.248047	9653.141602
498.962891	9742.728516
497.679688	9686.283203
496.394531	9731.063477
495.109375	9682.426758
493.824219	9797.224609
492.539063	9655.229492
491.253906	9670.808594
489.968750	9826.368164
488.681641	9777.757813
487.396484	9719.448242
486.109375	9775.805664
484.822266	9703.919922
483.535156	9750.544922
482.248047	9816.570313
480.960938	9843.737305
479.671875	9700.070313
478.384766	9733.071289
477.095703	9779.641602
475.806641	9603.090820
474.517578	9702.037109
473.228516	9599.262695
471.939453	9723.375000
470.650391	9467.497070
469.359375	9533.442383
468.070313	9607.112305
466.779297	9626.506836
465.488281	9645.893555
464.197266	9709.812500
462.906250	9589.770508
461.615234	9765.949219
460.324219	9618.847656
459.031250	9605.319336
457.738281	9584.057617
456.447266	9644.041992
455.154297	9645.985352
453.861328	9645.995117
452.568359	9744.590820
451.273438	9574.503906
449.980469	9642.156250
448.685547	9754.215820
447.392578	9707.844727
446.097656	9775.428711
444.802734	9636.395508
443.507813	9781.180664
442.210938	9895.028320
440.916016	9732.897461
439.621094	9993.328125
438.324219	9989.405273
437.027344	9977.770508
435.730469	9933.361328
434.433594	10120.291992
433.136719	10145.254883
431.839844	10166.352539
430.542969	10291.474609
429.244141	10079.471680
427.945313	10202.634766
426.648438	10219.851563
425.349609	10163.913086
424.050781	10448.650391
422.750000	10511.988281
421.451172	10525.281250
420.152344	10586.654297
418.851563	10661.463867
417.550781	10380.547852
416.250000	10511.114258
414.949219	10760.787109
413.648438	10652.956055
412.347656	10679.646484
411.044922	10544.983398
409.744141	10590.887695
408.441406	10715.494141
407.138672	10770.944336
405.837891	10774.552734
404.533203	10877.938477
403.230469	10666.655273
401.927734	10860.170898
400.623047	10798.555664
399.320313	10727.376953
398.015625	10799.997070
396.710938	10606.186523
395.406250	10573.411133
394.101563	10538.733398
392.796875	10505.984375
391.490234	10293.235352
390.185547	10455.840820
388.878906	10398.241211
387.572266	10553.104492
386.267578	10309.898438
384.958984	10223.665039
383.652344	10194.846680
382.345703	10296.080078
381.037109	10238.579102
379.730469	10024.350586
378.421875	10152.313477
377.113281	10098.696289
375.804688	10039.368164
374.496094	9922.762695
373.187500	10136.577148
371.876953	9916.895508
370.568359	9972.185547
369.257813	9794.611328
367.947266	9737.321289
366.638672	9743.010742
365.326172	9809.734375
364.015625	9929.828125
362.705078	9653.292969
361.392578	9599.899414
360.082031	9662.785156
358.769531	9834.258789
357.457031	9590.349609
356.144531	9537.009766
354.832031	9479.882813
353.519531	9542.728516
352.205078	9380.924805
350.892578	9340.991211
349.578125	9371.478516
348.263672	9348.684570
346.949219	9426.708984
345.634766	9287.908203
344.320313	9274.650391
343.005859	9229.081055
341.689453	9099.905273
340.375000	9272.910156
339.058594	9183.672852
337.742188	9179.944336
336.425781	9145.833008
335.109375	9069.963867
333.792969	9060.564453
332.474609	9001.823242
331.158203	9007.622070
329.839844	9072.230469
328.521484	8954.720703
327.203125	8850.533203
325.884766	8930.300781
324.566406	8756.019531
323.246094	9025.302734
321.927734	8894.654297
320.607422	8845.521484
319.287109	8843.762695
317.968750	8951.842773
316.648438	8726.642578
315.326172	8753.302734
314.005859	8779.952148
312.685547	8908.773438
311.363281	8710.246094
310.041016	8895.774414
308.718750	8928.047852
307.398438	8835.516602
306.074219	8839.432617
304.751953	8737.506836
303.429688	8913.396484
302.105469	9057.099609
300.783203	9091.189453
299.458984	8877.872070
298.134766	8964.851563
296.810547	9042.357422
295.486328	8940.531250
294.160156	9104.814453
292.835938	8948.303711
291.509766	8825.807617
290.185547	9001.330078
288.859375	9125.874023
287.533203	9193.814453
286.207031	9103.407227
284.878906	9016.804688
283.552734	8979.220703
282.224609	8894.561523
280.898438	9090.541992
279.570313	9096.271484
278.242188	8940.102539
276.914063	9024.911133
275.585938	8955.378906
274.255859	8838.839844
272.927734	8996.977539
271.597656	9106.155273
270.269531	9128.796875
268.939453	9006.675781
267.609375	9106.388672
266.277344	9091.432617
264.947266	8794.663086
263.617188	8943.198242
262.285156	9127.357422
260.955078	9076.732422
259.623047	9106.852539
258.291016	9011.206055
256.958984	9065.721680
255.625000	9133.350586
254.292969	9088.402344
252.960938	8974.079102
251.626953	9097.938477
250.292969	9071.770508
248.958984	9075.603516
247.625000	9296.815430
246.291016	9235.025391
244.957031	9079.597656
243.621094	9115.264648
242.287109	9210.836914
240.951172	9104.181641
239.615234	9134.207031
238.279297	9222.233398
236.943359	9295.256836
235.607422	9284.072266
234.269531	9342.093750
232.933594	9355.212891
231.595703	9437.500977
230.257813	9302.930664
228.921875	9390.803711
227.582031	9484.246094
226.244141	9276.891602
224.906250	9383.394531
223.566406	9504.793945
222.228516	9331.164063
220.888672	9349.862305
219.548828	9400.280273
218.208984	9334.993164
216.869141	9473.073242
215.529297	9262.316406
214.187500	9461.894531
212.847656	9327.664063
211.505859	9266.183594
210.164063	9450.734375
208.822266	9327.764648
207.480469	9515.957031
206.138672	9437.725586
204.796875	9407.942383
203.453125	9560.632813
202.111328	9497.331055
