#Wave		#Intensity
1319.062500	5962.716309
1317.935547	6058.066406
1316.808594	6232.121094
1315.679688	6288.630371
1314.552734	6103.547852
1313.423828	6142.332520
1312.294922	6134.578613
1311.167969	6131.256836
1310.039063	5986.199219
1308.908203	6013.904785
1307.779297	6154.506836
1306.650391	6137.902344
1305.521484	6169.991211
1304.390625	6182.154297
1303.261719	6242.982422
1302.130859	6279.457520
1301.000000	5948.817871
1299.869141	6042.820313
1298.738281	6037.308594
1297.607422	6224.091309
1296.476563	5931.266602
1295.343750	6020.784668
1294.212891	5772.283203
1293.080078	6027.446777
1291.949219	5984.401855
1290.816406	5970.074707
1289.683594	5821.096680
1288.550781	5908.329102
1287.417969	5863.129395
1286.285156	5811.326660
1285.152344	6110.276855
1284.017578	5912.886230
1282.884766	5746.437988
1281.750000	5747.604980
1280.617188	5947.157227
1279.482422	5950.491211
1278.347656	5865.684082
1277.212891	5860.218750
1276.078125	5914.228027
1274.943359	5999.049316
1273.806641	5850.438477
1272.671875	5913.225586
1271.535156	5804.303711
1270.400391	5880.279785
1269.263672	5938.625488
1268.126953	5770.359863
1266.990234	5703.332031
1265.853516	5953.000488
1264.716797	5872.770996
1263.580078	5687.051270
1262.441406	5879.440430
1261.304688	5871.785156
1260.166016	5716.925293
1259.029297	5805.958008
1257.890625	5870.798340
1256.751953	5810.446777
1255.613281	5892.827148
1254.474609	6058.592285
1253.335938	5875.333008
1252.195313	5872.076660
1251.056641	5754.735352
1249.916016	5874.339844
1248.777344	5768.005859
1247.636719	5907.299805
1246.496094	5581.761230
1245.355469	5778.028809
1244.214844	5676.170898
1243.074219	5762.791016
1241.933594	5849.379883
1240.791016	5843.940430
1239.650391	5932.672363
1238.507813	5870.290527
1237.367188	5781.660156
1236.224609	5929.452148
1235.082031	5724.857422
1233.939453	6003.885742
1232.796875	5934.982910
1231.654297	5824.547852
1230.509766	5924.086914
1229.367188	6003.911621
1228.222656	5849.802734
1227.080078	5962.395996
1225.935547	5967.871582
1224.791016	5977.714844
1223.646484	5775.663574
1222.501953	6178.665527
1221.357422	5946.079102
1220.212891	5912.252930
1219.066406	5998.496094
1217.921875	5842.454102
1216.775391	6057.419922
1215.628906	6123.953613
1214.484375	6002.873535
1213.337891	6043.222168
1212.191406	5896.033691
1211.042969	5877.523926
1209.896484	5869.919434
1208.750000	5842.703125
1207.601563	6009.418945
1206.455078	6049.720703
1205.306641	5872.196289
1204.158203	6021.393555
1203.011719	6037.719727
1201.863281	6040.978027
1200.712891	5826.581543
1199.564453	5995.263184
1198.416016	6072.501465
1197.267578	6045.295410
1196.117188	5913.700684
1194.966797	5934.372559
1193.818359	6061.570801
1192.667969	5949.607910
1191.517578	5878.979492
1190.367188	5854.008789
1189.216797	5842.083008
1188.064453	5986.558594
1186.914063	5833.445313
1185.763672	5921.412598
1184.611328	5926.849609
1183.458984	6049.497559
1182.306641	5889.972168
1181.156250	5912.770020
1180.003906	5968.100098
1178.849609	6016.903320
1177.697266	6004.965820
1176.544922	6016.883789
1175.390625	5976.768066
1174.238281	6068.881836
1173.083984	5931.252930
1171.929688	5923.673828
1170.777344	6030.910156
1169.623047	6016.817383
1168.466797	5866.304199
1167.312500	6140.203125
1166.158203	5935.604004
1165.003906	6114.161133
1163.847656	6061.114258
1162.691406	6157.369141
1161.537109	5875.041992
1160.380859	6057.804199
1159.224609	6123.733398
1158.068359	6148.561035
1156.912109	6106.371582
1155.753906	6269.506836
1154.597656	6108.468262
1153.441406	6282.345215
1152.283203	6060.882813
1151.125000	6318.927734
1149.966797	6196.861328
1148.808594	6295.036133
1147.650391	6084.523926
1146.492188	6230.158691
1145.333984	6153.506348
1144.175781	6314.175293
1143.015625	6224.593750
1141.857422	6417.537109
1140.697266	6325.812500
1139.537109	6328.969727
1138.376953	6433.421875
1137.216797	6667.126953
1136.056641	6409.529297
1134.896484	6412.666992
1133.736328	6465.338379
1132.574219	6520.143066
1131.414063	6462.977051
1130.251953	6552.201660
1129.089844	6499.354492
1127.927734	6698.276367
1126.765625	6570.124512
1125.603516	6708.734375
1124.441406	6746.217773
1123.279297	6846.041504
1122.115234	6846.939453
1120.953125	6841.389160
1119.789063	6829.393555
1118.625000	6901.195801
1117.462891	6859.118652
1116.298828	6954.514160
1115.132813	6858.756836
1113.968750	7104.406250
1112.804688	6869.126953
1111.640625	7076.052246
1110.474609	7038.278320
1109.308594	7285.858887
1108.144531	7168.693359
1106.978516	7027.979492
1105.812500	7196.087891
1104.646484	7224.783691
1103.480469	7292.051270
1102.312500	7487.877930
1101.146484	7265.810547
1099.980469	7497.987793
1098.812500	7327.404297
1097.644531	7726.521484
1096.476563	7519.559082
1095.310547	7575.979492
1094.140625	7685.887207
1092.972656	7772.214844
1091.804688	7875.626465
1090.636719	7835.677246
1089.466797	7654.584961
1088.298828	7723.746094
1087.128906	7946.815430
1085.958984	8109.949707
1084.789063	8014.425293
1083.619141	7916.798828
1082.449219	8079.847656
1081.279297	8093.315918
1080.107422	8339.560547
1078.937500	8478.953125
1077.765625	8199.868164
1076.595703	8469.434570
1075.423828	8388.918945
1074.251953	8366.041016
1073.080078	8366.635742
1071.908203	8571.986328
1070.736328	8314.513672
1069.562500	8509.135742
1068.390625	8597.101563
1067.216797	8731.923828
1066.044922	8525.750977
1064.871094	8737.233398
1063.697266	8654.680664
1062.523438	8791.520508
1061.349609	8843.135742
1060.173828	8988.405273
1059.000000	8876.065430
1057.826172	8774.407227
1056.650391	8983.440430
1055.474609	9034.970703
1054.300781	8990.766602
1053.125000	9291.085938
1051.949219	9340.402344
1050.773438	9349.310547
1049.595703	9190.306641
1048.419922	9367.114258
1047.244141	9431.250977
1046.066406	9323.299805
1044.888672	9718.740234
1043.710938	9778.527344
1042.535156	9717.277344
1041.357422	9753.692383
1040.177734	9930.165039
1039.000000	9847.700195
1037.822266	9814.059570
1036.642578	9920.423828
1035.464844	10014.024414
1034.285156	10376.871094
1033.105469	10025.166016
1031.925781	10156.844727
1030.746094	10239.734375
1029.566406	10242.079102
1028.386719	10219.002930
1027.207031	10344.192383
1026.025391	10268.165039
1024.845703	10317.079102
1023.664063	10484.514648
1022.482422	10651.888672
1021.300781	10446.780273
1020.119141	10622.560547
1018.937500	10582.520508
1017.755859	10741.290039
1016.574219	10587.061523
1015.390625	10897.982422
1014.207031	10773.372070
1013.025391	11105.274414
1011.841797	10739.800781
1010.658203	10672.324219
1009.474609	11056.862305
1008.291016	11042.142578
1007.107422	11014.760742
1005.921875	11050.715820
1004.738281	11101.430664
1003.552734	10913.679688
1002.367188	10930.643555
1001.183594	11131.115234
999.998047	11048.909180
998.812500	11029.990234
997.626953	11065.891602
996.439453	10964.771484
995.253906	11120.791016
994.066406	11173.509766
992.880859	10998.691406
991.693359	11156.722656
990.505859	11114.639648
989.318359	11226.269531
988.130859	11133.666016
986.943359	11180.003906
985.755859	11217.908203
984.566406	11165.329102
983.378906	10963.420898
982.189453	11049.712891
981.001953	11001.398438
979.812500	10961.510742
978.623047	11026.733398
977.433594	11056.204102
976.242188	11058.349609
975.052734	11192.840820
973.863281	11169.752930
972.671875	11077.375000
971.482422	11274.772461
970.291016	11119.431641
969.099609	11182.422852
967.908203	11064.926758
966.716797	11140.492188
965.525391	11281.054688
964.332031	10987.435547
963.140625	11049.829102
961.947266	11112.222656
960.755859	11174.617188
959.562500	11237.010742
958.369141	11276.820313
957.175781	10956.291992
955.982422	11155.320313
954.789063	11092.508789
953.593750	11054.844727
952.400391	10891.594727
951.205078	11113.504883
950.009766	11015.171875
948.816406	10980.704102
947.621094	10946.236328
946.425781	10911.768555
945.230469	10877.300781
944.033203	11067.602539
942.837891	10965.204102
941.640625	10877.470703
940.445313	10898.420898
939.248047	11115.730469
938.050781	11034.282227
936.853516	11053.100586
935.656250	11034.329102
934.458984	10986.339844
933.261719	11105.333008
932.062500	11057.346680
930.865234	10975.997070
929.666016	10844.615234
928.466797	11030.279297
927.269531	11184.597656
926.070313	10911.486328
924.869141	11161.646484
923.669922	11047.020508
922.470703	11086.621094
921.269531	10826.228516
920.070313	11026.227539
918.869141	10836.745117
917.667969	11144.928711
916.466797	10990.880859
915.265625	10978.412109
914.064453	10932.653320
912.863281	10936.842773
911.662109	10795.425781
910.458984	10986.805664
909.257813	10874.541016
908.054688	10876.656250
906.851563	10995.164063
905.648438	10874.646484
904.445313	10930.778320
903.242188	10849.785156
902.039063	10856.052734
900.833984	10841.551758
899.630859	10550.929688
898.425781	10752.368164
897.220703	10519.980469
896.015625	10982.792969
894.810547	10916.414063
893.605469	10470.483398
892.400391	10731.883789
891.195313	10653.146484
889.988281	10526.758789
888.783203	10396.273438
887.576172	10400.531250
886.369141	10446.223633
885.162109	10444.253906
883.955078	10299.381836
882.748047	10214.613281
881.541016	10481.823242
880.332031	10268.717773
879.125000	10173.653320
877.916016	10140.697266
876.707031	10413.922852
875.500000	10207.192383
874.291016	10157.703125
873.082031	10006.921875
871.871094	10098.053711
870.662109	10030.009766
869.453125	10350.469727
868.242188	9974.570313
867.031250	10212.294922
865.822266	9844.823242
864.611328	10078.350586
863.400391	10092.960938
862.187500	10122.012695
860.976563	9979.770508
859.765625	9763.303711
858.552734	10017.250977
857.341797	9910.169922
856.128906	9728.892578
854.916016	9784.778320
853.703125	9710.780273
852.490234	9760.463867
851.277344	9715.343750
850.064453	9738.225586
848.849609	9876.442383
847.636719	9913.698242
846.421875	9726.512695
845.207031	9767.898438
843.992188	9679.603516
842.777344	9725.096680
841.562500	9474.306641
840.347656	9544.504883
839.130859	9550.919922
837.916016	9563.500977
836.699219	9578.132813
835.482422	9594.813477
834.267578	9492.293945
833.050781	9624.043945
831.833984	9480.470703
830.615234	9484.831055
829.398438	9546.687500
828.181641	9680.377930
826.962891	9676.485352
825.744141	9783.418945
824.527344	9471.716797
823.308594	9605.316406
822.089844	9722.456055
820.869141	9642.677734
819.650391	9671.598633
818.431641	9645.158203
817.210938	9530.594727
815.992188	9844.356445
814.771484	9561.794922
813.550781	9594.797852
812.330078	9724.043945
811.109375	9765.191406
809.888672	9734.668945
808.666016	9661.173828
807.445313	9812.817383
806.222656	9737.287109
805.001953	9811.121094
803.779297	9770.389648
802.556641	9717.402344
801.333984	9881.154297
800.109375	9783.195313
798.886719	9668.921875
797.664063	9808.067383
796.439453	9726.519531
795.216797	9653.171875
793.992188	9800.407227
792.767578	9788.326172
791.542969	9845.657227
790.318359	9666.208008
789.091797	10050.037109
787.867188	9603.345703
786.642578	9805.493164
785.416016	9681.251953
784.189453	9958.750977
782.962891	9734.630859
781.736328	9883.600586
780.509766	9891.898438
779.283203	9949.092773
778.056641	9882.000977
776.828125	10096.000977
775.601563	9825.272461
774.373047	9851.893555
773.144531	10051.525391
771.916016	9909.173828
770.687500	9950.004883
769.458984	10005.059570
768.230469	9984.835938
767.000000	10084.601563
765.771484	9889.512695
764.541016	10015.683594
763.310547	10023.923828
762.080078	9835.053711
760.849609	10150.102539
759.619141	9928.779297
758.388672	9827.360352
757.156250	10091.465820
755.925781	10018.474609
754.693359	10051.055664
753.462891	10176.970703
752.230469	10059.367188
750.998047	10124.375000
749.765625	10262.370117
748.531250	9990.707031
747.298828	9982.704102
746.064453	10041.593750
744.832031	10084.246094
743.597656	10078.253906
742.363281	10349.797852
741.128906	10187.798828
739.894531	10331.638672
738.660156	10159.581055
737.425781	10242.642578
736.189453	10018.046875
734.955078	10192.158203
733.718750	10076.902344
732.482422	10109.346680
731.246094	10168.067383
730.009766	10295.508789
728.773438	10152.018555
727.537109	10378.447266
726.298828	10146.082031
725.062500	10503.746094
723.824219	10218.926758
722.585938	10249.267578
721.347656	10204.886719
720.109375	10261.461914
718.871094	10273.609375
717.632813	10376.561523
716.392578	10243.413086
715.154297	10310.020508
713.914063	10620.637695
712.673828	10600.437500
711.433594	10503.633789
710.193359	10695.107422
708.953125	10777.681641
707.712891	10894.475586
706.472656	10703.005859
705.230469	10674.752930
703.988281	10706.920898
702.748047	10773.301758
701.505859	10730.958008
700.263672	10976.424805
699.021484	10913.934570
697.777344	11110.986328
696.535156	11143.028320
695.291016	11313.814453
694.048828	11311.623047
692.804688	11508.441406
691.560547	11377.583008
690.316406	11642.631836
689.072266	11736.808594
687.828125	11911.294922
686.582031	12011.406250
685.337891	12159.666992
684.091797	12321.920898
682.847656	12558.374023
681.601563	12576.003906
680.355469	12724.037109
679.109375	12703.513672
677.861328	12753.191406
676.615234	12937.193359
675.369141	13123.126953
674.121094	12910.120117
672.873047	12979.754883
671.625000	12931.149414
670.376953	13096.905273
669.128906	13108.378906
667.880859	13107.833008
666.632813	13109.288086
665.382813	12868.542969
664.134766	12990.118164
662.884766	12755.490234
661.634766	12733.003906
660.384766	12552.518555
659.134766	12370.102539
657.884766	12155.768555
656.632813	12023.471680
655.382813	11751.330078
654.130859	11793.000000
652.880859	11576.943359
651.628906	11668.563477
650.376953	11612.371094
649.125000	11414.443359
647.871094	11360.317383
646.619141	11186.463867
645.367188	11118.433594
644.113281	10886.837891
642.859375	10912.638672
641.607422	10896.549805
640.353516	10766.816406
639.097656	10627.166016
637.843750	10625.091797
636.589844	10734.608398
635.333984	10638.874023
634.080078	10588.990234
632.824219	10592.896484
631.568359	10457.421875
630.312500	10501.165039
629.056641	10596.640625
627.800781	10509.000977
626.544922	10337.833008
625.287109	10554.622070
624.029297	10598.299805
622.773438	10409.317383
621.515625	10472.885742
620.257813	10367.479492
619.000000	10329.680664
617.742188	10148.842773
616.482422	10349.475586
615.224609	10522.223633
613.964844	10381.165039
612.705078	10327.514648
611.445313	10287.778320
610.185547	10472.307617
608.925781	10440.494141
607.666016	10607.066406
606.406250	10610.937500
605.144531	10507.726563
603.884766	10557.212891
602.623047	10682.002930
601.361328	10713.598633
600.099609	10772.920898
598.837891	10669.775391
597.576172	10737.003906
596.312500	10760.640625
595.050781	10825.843750
593.787109	10825.697266
592.523438	10609.832031
591.259766	10704.704102
589.996094	11011.216797
588.732422	11040.700195
587.468750	10927.790039
586.205078	11139.173828
584.939453	11087.565430
583.673828	11091.315430
582.410156	11008.120117
581.144531	11191.661133
579.878906	11037.370117
578.611328	11426.210938
577.345703	11327.216797
576.080078	11242.079102
574.812500	11190.526367
573.546875	11330.398438
572.279297	11235.443359
571.011719	11211.535156
569.744141	11329.625000
568.476563	11418.091797
567.207031	11346.846680
565.939453	11525.936523
564.669922	11474.403320
563.402344	11322.411133
562.132813	11341.847656
560.863281	11640.924805
559.593750	11424.011719
558.322266	11768.231445
557.052734	11726.546875
555.783203	11562.874023
554.511719	11483.863281
553.240234	11426.520508
551.968750	11528.499023
550.697266	11559.650391
549.425781	11834.557617
548.154297	11480.399414
546.882813	11676.607422
545.609375	11717.526367
544.337891	11726.998047
543.064453	11437.947266
541.791016	11445.505859
540.517578	11515.881836
539.244141	11641.186523
537.970703	11564.315430
536.695313	11703.292969
535.421875	11808.868164
534.146484	11898.710938
532.871094	11786.551758
531.595703	11841.073242
530.320313	11576.083984
529.044922	11552.238281
527.769531	11506.847656
526.492188	11492.817383
525.216797	11676.601563
523.939453	11621.420898
522.662109	11603.458984
521.384766	11714.687500
520.107422	11526.457031
518.830078	11692.438477
517.552734	11758.588867
516.273438	11705.409180
514.996094	11613.141602
513.716797	11632.345703
512.437500	11780.546875
511.158203	11576.924805
509.878906	11531.644531
508.599609	11783.309570
507.318359	11736.051758
506.039063	11821.595703
504.757813	11864.153320
503.476563	12031.617188
502.197266	11999.957031
500.916016	11853.191406
499.632813	11858.641602
498.351563	12072.779297
497.070313	11972.883789
495.787109	11919.817383
494.503906	11933.043945
493.222656	12121.658203
491.939453	11807.501953
490.656250	12112.947266
489.371094	12052.111328
488.087891	12067.242188
486.804688	11977.234375
485.519531	11889.208008
484.234375	11970.527344
482.949219	12244.440430
481.666016	11825.703125
480.378906	11854.470703
479.093750	11787.943359
477.808594	11701.999023
476.521484	11672.458008
475.236328	11858.645508
473.949219	11788.280273
472.662109	11923.861328
471.375000	11676.764648
470.087891	11767.649414
468.798828	11792.487305
467.511719	11900.781250
466.222656	11644.179688
464.935547	11826.190430
463.646484	11765.636719
462.357422	11774.930664
461.068359	11473.955078
459.779297	11677.177734
458.488281	11701.988281
457.199219	11563.996094
455.908203	11646.946289
454.619141	11815.099609
453.328125	11744.954102
452.037109	11802.641602
450.746094	11717.037109
449.453125	11705.022461
448.162109	11631.081055
446.869141	12021.545898
445.578125	11757.987305
444.285156	11606.712891
442.992188	11677.878906
441.699219	11894.017578
440.406250	12011.487305
439.111328	11784.909180
437.818359	12045.334961
436.523438	12098.952148
435.230469	11982.582031
433.935547	11883.635742
432.640625	12197.889648
431.345703	12156.847656
430.048828	12272.140625
428.753906	12317.925781
427.457031	12402.274414
426.162109	12185.706055
424.865234	12422.384766
423.568359	12310.007813
422.271484	12375.010742
420.974609	12330.138672
419.677734	12651.375000
418.378906	12668.108398
417.082031	12617.422852
415.783203	12526.319336
414.484375	12710.563477
413.185547	12808.113281
411.886719	12713.173828
410.587891	12795.290039
409.287109	12842.745117
407.988281	12624.760742
406.687500	12749.147461
405.386719	12775.432617
404.085938	12682.532227
402.785156	12760.707031
401.484375	12598.673828
400.183594	12845.883789
398.880859	12806.817383
397.580078	12758.165039
396.277344	12742.168945
394.974609	12801.039063
393.671875	12827.259766
392.369141	12542.637695
391.066406	12701.262695
389.763672	12533.772461
388.458984	12788.211914
387.154297	12684.037109
385.851563	12413.142578
384.546875	12535.218750
383.242188	12475.223633
381.937500	12491.876953
380.630859	12278.693359
379.326172	12381.546875
378.019531	12344.601563
376.712891	12437.829102
375.408203	12236.305664
374.101563	12178.362305
372.792969	12063.053711
371.486328	12257.625977
370.179688	12379.456055
368.871094	12354.028320
367.564453	12248.331055
366.255859	12043.301758
364.947266	12044.704102
363.638672	12137.796875
362.330078	12123.898438
361.019531	11930.513672
359.710938	12067.480469
358.400391	12152.857422
357.089844	11938.587891
355.781250	12031.586914
354.470703	12179.866211
353.158203	11834.123047
351.847656	12169.248047
350.537109	11857.960938
349.224609	11895.602539
347.914063	12371.530273
346.601563	11957.502930
345.289063	11856.042969
343.976563	11992.687500
342.662109	11931.246094
341.349609	11976.439453
340.037109	11703.751953
338.722656	11701.396484
337.408203	11817.002930
336.093750	11761.362305
334.779297	11816.049805
333.464844	11710.993164
332.150391	11723.843750
330.833984	11599.839844
329.519531	11945.257813
328.203125	11635.066406
326.886719	11822.675781
325.570313	11805.101563
324.253906	11688.797852
322.937500	11809.837891
321.619141	11534.147461
320.302734	11632.396484
318.984375	11810.290039
317.666016	11578.391602
316.347656	11621.573242
315.029297	11482.712891
313.710938	11624.471680
312.392578	11891.264648
311.072266	11790.331055
309.753906	11850.474609
308.433594	11851.874023
307.113281	11749.112305
305.792969	11843.307617
304.472656	11714.085938
303.152344	11876.384766
301.830078	11917.511719
300.509766	11947.269531
299.187500	11676.265625
297.865234	11934.885742
296.542969	12068.611328
295.220703	12109.654297
293.898438	12003.262695
292.574219	11917.698242
291.251953	11979.526367
289.927734	11961.998047
288.603516	12082.333008
287.279297	12108.215820
285.955078	12215.257813
284.630859	12142.961914
283.306641	12115.979492
281.980469	12041.844727
280.656250	11975.284180
279.330078	11995.495117
278.003906	11962.906250
276.677734	11937.870117
275.351563	12091.884766
274.023438	12036.683594
272.697266	11847.748047
271.369141	12080.792969
270.042969	12159.327148
268.714844	12011.899414
267.386719	11934.177734
266.058594	12040.921875
264.728516	11791.999023
263.400391	11992.788086
262.070313	11964.033203
260.742188	12140.259766
259.412109	12062.602539
258.082031	12022.570313
256.751953	11956.244141
255.421875	11818.543945
254.089844	12026.553711
252.759766	12133.056641
251.427734	12078.025391
250.095703	12146.925781
248.763672	12420.395508
247.431641	12145.768555
246.099609	12203.353516
244.767578	12456.008789
243.433594	12318.452148
242.101563	12400.342773
240.767578	12364.088867
239.433594	12485.297852
238.099609	12271.009766
236.765625	12380.946289
235.431641	12440.258789
234.095703	12477.073242
232.761719	12416.501953
231.425781	12646.131836
230.089844	12390.889648
228.753906	12670.957031
227.417969	12297.940430
226.082031	12546.112305
224.744141	12504.298828
223.408203	12709.321289
222.070313	12570.279297
220.732422	12601.378906
219.394531	12772.618164
218.056641	12717.720703
216.718750	12745.034180
215.378906	12858.244141
214.041016	12624.109375
212.701172	12690.625977
211.361328	12816.841797
210.023438	12560.462891
208.681641	12513.144531
207.341797	12831.444336
206.001953	12832.576172
204.660156	12719.969727
203.320313	12808.739258
201.978516	12681.272461
200.636719	12715.972656
199.294922	12983.540039
197.953125	13053.554688
196.611328	13099.331055
195.267578	13232.598633
193.923828	13079.134766
192.582031	13249.574219
191.238281	13205.954102
189.894531	13227.464844
188.550781	13317.788086
187.205078	13114.249023
185.861328	13420.232422
184.515625	13456.551758
183.171875	13596.932617
181.826172	13445.527344
180.480469	13899.814453
179.134766	13649.966797
177.787109	13734.481445
176.441406	13679.713867
175.093750	13741.913086
173.748047	13813.365234
172.400391	13853.244141
171.052734	13763.247070
169.705078	13762.313477
168.355469	13798.467773
167.007813	14120.124023
165.660156	14043.119141
164.310547	13825.296875
162.960938	13872.524414
161.611328	13960.486328
160.261719	14044.708984
158.912109	14034.457031
157.560547	14009.397461
156.210938	14006.559570
154.859375	13994.468750
153.507813	14110.050781
152.156250	14477.168945
150.804688	14170.916992
149.453125	14081.136719
148.101563	14387.027344
146.748047	14404.444336
145.396484	14399.678711
144.042969	14374.589844
142.689453	14658.002930
141.335938	14570.077148
139.982422	14914.269531
138.626953	14975.863281
137.273438	14915.611328
135.917969	14997.477539
134.564453	14944.624023
133.208984	15137.128906
131.853516	15325.866211
130.496094	15094.119141
129.140625	15527.975586
127.785156	15639.105469
126.427734	15558.541016
125.070313	15514.856445
123.712891	15738.283203
122.355469	15628.279297
120.998047	15801.876953
119.640625	15682.699219
118.281250	15716.333008
116.923828	15737.072266
115.564453	15868.189453
114.205078	15852.099609
112.845703	15806.590820
111.486328	15555.167969
110.126953	15656.800781
108.765625	15655.467773
107.406250	16078.610352
106.044922	16169.050781
104.683594	15908.622070
103.322266	16359.000977
101.960938	16280.409180
100.599609	16060.500977
99.236328	16528.925781
97.875000	16505.394531
96.511719	16465.361328
95.148438	16533.562500
93.785156	16775.947266
92.421875	16750.550781
91.058594	16675.667969
89.693359	16663.126953
88.330078	16540.650391
86.964844	16978.810547
85.599609	16711.621094
84.234375	16858.400391
82.869141	17052.720703
81.503906	16886.355469
80.138672	16837.183594
78.771484	16648.970703
77.404297	16656.576172
76.037109	16706.246094
74.669922	16834.527344
73.302734	16695.828125
71.935547	16507.830078
70.568359	16431.388672
69.199219	16574.236328
67.832031	16519.732422
66.462891	16319.135742
65.093750	16021.838867
63.724609	16047.808594
62.353516	15697.750977
60.984375	15579.603516
59.613281	15060.094727
