#Wave		#Intensity
1319.062500	6135.677246
1317.935547	6277.593750
1316.808594	6059.191406
1315.679688	6202.181152
1314.552734	6152.305176
1313.423828	6102.447266
1312.294922	6212.119141
1311.167969	6184.418457
1310.039063	6245.312988
1308.908203	5929.763184
1307.779297	6088.091309
1306.650391	6047.150879
1305.521484	6026.142578
1304.390625	5974.164551
1303.261719	5931.054199
1302.130859	6228.584961
1301.000000	6010.738770
1299.869141	5916.790039
1298.738281	6019.623535
1297.607422	5828.455078
1296.476563	6006.401855
1295.343750	5945.663086
1294.212891	5820.882324
1293.080078	5903.761230
1291.949219	5796.699219
1290.816406	5965.658691
1289.683594	5754.872559
1288.550781	5837.702637
1287.417969	5704.248535
1286.285156	5692.187988
1285.152344	5774.983398
1284.017578	5844.516602
1282.884766	5574.441406
1281.750000	5743.195801
1280.617188	5713.502930
1279.482422	5672.801758
1278.347656	5684.998047
1277.212891	5785.313477
1276.078125	5656.512695
1274.943359	5789.831055
1273.806641	5821.813965
1272.671875	5761.322266
1271.535156	5509.355957
1270.400391	5585.385254
1269.263672	5608.579590
1268.126953	5554.768555
1266.990234	5617.551270
1265.853516	5757.279297
1264.716797	5617.719727
1263.580078	5588.126465
1262.441406	5648.658691
1261.304688	5759.711426
1260.166016	5655.405762
1259.029297	5735.662598
1257.890625	5754.392578
1256.751953	5691.866211
1255.613281	5706.206055
1254.474609	5626.149414
1253.335938	5508.810547
1252.195313	5948.878906
1251.056641	5656.007324
1249.916016	5611.113281
1248.777344	5537.724609
1247.636719	5773.541016
1246.496094	5647.532227
1245.355469	5955.578125
1244.214844	5625.765137
1243.074219	5664.188477
1241.933594	5619.348145
1240.791016	5644.615723
1239.650391	5549.424805
1238.507813	5808.981934
1237.367188	5641.551758
1236.224609	5802.501953
1235.082031	5501.640625
1233.939453	5691.000977
1232.796875	5775.287598
1231.654297	5782.990723
1230.509766	5738.207520
1229.367188	5794.015137
1228.222656	5736.129395
1227.080078	5872.785156
1225.935547	5729.681152
1224.791016	5763.601074
1223.646484	5633.674805
1222.501953	5752.776855
1221.357422	5819.427734
1220.212891	5949.368164
1219.066406	5743.101563
1217.921875	5757.337891
1216.775391	5634.098633
1215.628906	5825.064941
1214.484375	5704.038574
1213.337891	5853.485352
1212.191406	5834.980469
1211.042969	5836.102539
1209.896484	5693.363770
1208.750000	5814.372070
1207.601563	5665.152344
1206.455078	5690.266602
1205.306641	5789.427734
1204.158203	5873.308594
1203.011719	5854.824707
1201.863281	5742.738770
1200.712891	5567.574219
1199.564453	5851.637695
1198.416016	5772.249023
1197.267578	5695.063965
1196.117188	5615.731934
1194.966797	5793.026367
1193.818359	5637.608887
1192.667969	5601.804688
1191.517578	5694.242676
1190.367188	5901.814453
1189.216797	5829.047363
1188.064453	5977.869629
1186.914063	5744.401367
1185.763672	5801.985840
1184.611328	5883.429688
1183.458984	5871.507324
1182.306641	5885.631836
1181.156250	5997.393066
1180.003906	5831.426270
1178.849609	5869.408691
1177.697266	5833.643555
1176.544922	5954.004395
1175.390625	5981.104004
1174.238281	5817.456543
1173.083984	5799.062012
1171.929688	5930.173828
1170.777344	5898.767090
1169.623047	5854.376465
1168.466797	5745.036621
1167.312500	5943.179688
1166.158203	5911.792480
1165.003906	5928.030762
1163.847656	5959.410156
1162.691406	5964.815918
1161.537109	5842.595215
1160.380859	6018.875000
1159.224609	5935.609863
1158.068359	5925.881348
1156.912109	5855.632324
1155.753906	6100.937012
1154.597656	5978.822754
1153.441406	6124.638184
1152.283203	6000.403809
1151.125000	6161.278320
1149.966797	6332.890137
1148.808594	6150.397461
1147.650391	6000.346680
1146.492188	6338.059082
1145.333984	6075.832520
1144.175781	6145.912109
1143.015625	6170.673340
1141.857422	6208.363281
1140.697266	6202.918457
1139.537109	6214.720703
1138.376953	6373.074707
1137.216797	6464.570801
1136.056641	6325.504883
1134.896484	6444.978027
1133.736328	6497.643555
1132.574219	6627.807129
1131.414063	6719.171387
1130.251953	6638.301758
1129.089844	6701.652344
1127.927734	6801.558594
1126.765625	6445.348145
1125.603516	6977.599609
1124.441406	6750.519043
1123.279297	6626.727051
1122.115234	6917.881348
1120.953125	6787.655273
1119.789063	6913.203125
1118.625000	7055.892578
1117.462891	7022.379883
1116.298828	6982.435059
1115.132813	7210.928223
1113.968750	7100.112305
1112.804688	7148.185059
1111.640625	7230.579102
1110.474609	7327.963379
1109.308594	7367.384766
1108.144531	7280.234863
1106.978516	7332.518066
1105.812500	7178.934082
1104.646484	7437.025391
1103.480469	7472.102051
1102.312500	7554.312988
1101.146484	7608.638184
1099.980469	7564.398438
1098.812500	7655.113281
1097.644531	7666.559570
1096.476563	7553.816895
1095.310547	7768.643555
1094.140625	7765.079102
1092.972656	7746.535645
1091.804688	7830.696289
1090.636719	8021.782715
1089.466797	7958.287109
1088.298828	7939.720215
1087.128906	7904.056152
1085.958984	8065.061035
1084.789063	8005.876465
1083.619141	8329.198242
1082.449219	8173.849121
1081.279297	8249.244141
1080.107422	8378.000977
1078.937500	8327.352539
1077.765625	8492.338867
1076.595703	8691.416016
1075.423828	8455.074219
1074.251953	8432.183594
1073.080078	8501.031250
1071.908203	8751.146484
1070.736328	8510.701172
1069.562500	8777.778320
1068.390625	8731.398438
1067.216797	8908.821289
1066.044922	8879.480469
1064.871094	9201.685547
1063.697266	9006.151367
1062.523438	8846.893555
1061.349609	9294.555664
1060.173828	9152.333984
1059.000000	9369.889648
1057.826172	9219.193359
1056.650391	9445.166992
1055.474609	9307.274414
1054.300781	9209.845703
1053.125000	9522.884766
1051.949219	9404.188477
1050.773438	9661.804688
1049.595703	9645.145508
1048.419922	9532.866211
1047.244141	9684.082031
1046.066406	9830.993164
1044.888672	9814.313477
1043.710938	9920.798828
1042.535156	9757.616211
1041.357422	10112.424805
1040.177734	10106.314453
1039.000000	10216.909180
1037.822266	10221.387695
1036.642578	9903.455078
1035.464844	10402.116211
1034.285156	10423.518555
1033.105469	10451.272461
1031.925781	10370.918945
1030.746094	10540.653320
1029.566406	10570.487305
1028.386719	10763.422852
1027.207031	10702.130859
1026.025391	10780.620117
1024.845703	10789.212891
1023.664063	10630.574219
1022.482422	10687.867188
1021.300781	10880.564453
1020.119141	10802.388672
1018.937500	10901.920898
1017.755859	11136.765625
1016.574219	10845.024414
1015.390625	11064.993164
1014.207031	11090.421875
1013.025391	11248.977539
1011.841797	11322.958008
1010.658203	11278.610352
1009.474609	11257.511719
1008.291016	11323.000977
1007.107422	11346.238281
1005.921875	11339.913086
1004.738281	11139.419922
1003.552734	11209.099609
1002.367188	11266.094727
1001.183594	11226.036133
999.998047	11312.531250
998.812500	11371.581055
997.626953	11436.932617
996.439453	11396.870117
995.253906	11344.176758
994.066406	11578.056641
992.880859	11420.016602
991.693359	11407.364258
990.505859	11289.424805
989.318359	11493.661133
988.130859	11462.055664
986.943359	11586.205078
985.755859	11419.917969
984.566406	11299.977539
983.378906	11299.980469
982.189453	11407.241211
981.001953	11476.612305
979.812500	11430.328125
978.623047	11431.982422
977.433594	11433.636719
976.242188	11435.291992
975.052734	11436.946289
973.863281	11438.600586
972.671875	11392.371094
971.482422	11339.859375
970.291016	11331.450195
969.099609	11325.141602
967.908203	11291.555664
966.716797	11270.569336
965.525391	11476.134766
964.332031	11543.204102
963.140625	11392.175781
961.947266	11561.960938
960.755859	11396.311523
959.562500	10935.233398
958.369141	11419.299805
957.175781	11270.526367
955.982422	11555.370117
954.789063	11588.813477
953.593750	11484.057617
952.400391	11366.780273
951.205078	11513.256836
950.009766	11314.406250
948.816406	11232.791016
947.621094	11305.996094
946.425781	11377.082031
945.230469	11326.862305
944.033203	11517.080078
942.837891	11395.785156
941.640625	11314.242188
940.445313	11259.890625
939.248047	11504.290039
938.050781	11312.071289
936.853516	11332.925781
935.656250	11295.311523
934.458984	11418.445313
933.261719	11268.125000
932.062500	11268.101563
930.865234	11255.560547
929.666016	11124.125977
928.466797	11255.515625
927.269531	11174.171875
926.070313	11220.026367
924.869141	11499.309570
923.669922	11442.971680
922.470703	11288.291016
921.269531	11133.611328
920.070313	10978.930664
918.869141	10824.250000
917.667969	11059.567383
916.466797	11103.287109
915.265625	11321.812500
914.064453	11157.382813
912.863281	11107.438477
911.662109	11017.990234
910.458984	11186.453125
909.257813	11001.375977
908.054688	11018.019531
906.851563	11028.419922
905.648438	10928.676758
904.445313	10914.156250
903.242188	10991.042969
902.039063	10878.899414
900.833984	10721.113281
899.630859	10810.447266
898.425781	10768.973633
897.220703	10827.132813
896.015625	10750.396484
894.810547	10835.504883
893.605469	10632.269531
892.400391	10802.392578
891.195313	10464.466797
889.988281	10634.555664
888.783203	10564.155273
887.576172	10495.853516
886.369141	10479.373047
885.162109	10558.184570
883.955078	10440.214844
882.748047	10566.626953
881.541016	10589.477539
880.332031	10324.604492
879.125000	10314.378906
877.916016	10223.460938
876.707031	10262.906250
875.500000	10093.434570
874.291016	10170.110352
873.082031	10130.974609
871.871094	10155.934570
870.662109	9788.198242
869.453125	10001.251953
868.242188	10040.682617
867.031250	9790.913086
865.822266	9888.192383
864.611328	9911.100586
863.400391	9682.140625
862.187500	9942.441406
860.976563	9942.625000
859.765625	9994.387695
858.552734	9726.387695
857.341797	9710.110352
856.128906	9677.340820
854.916016	9741.483398
853.703125	9389.217773
852.490234	9566.738281
851.277344	9294.998047
850.064453	9647.579102
848.849609	9470.673828
847.636719	9304.130859
846.421875	9427.963867
845.207031	9380.887695
843.992188	9370.876953
842.777344	9395.850586
841.562500	9416.700195
840.347656	9433.426758
839.130859	9363.768555
837.916016	9296.191406
836.699219	9417.777344
835.482422	9154.948242
834.267578	9214.861328
833.050781	9167.908203
831.833984	9351.051758
830.615234	9375.975586
829.398438	9002.511719
828.181641	9314.925781
826.962891	9062.724609
825.744141	9391.424805
824.527344	9151.615234
823.308594	9061.658203
822.089844	9488.625000
820.869141	9468.363281
819.650391	9306.632813
818.431641	9226.961914
817.210938	9145.271484
815.992188	9405.828125
814.771484	9078.276367
813.550781	9353.083984
812.330078	9177.219727
811.109375	9234.852539
809.888672	9216.714844
808.666016	9188.349609
807.445313	9061.763672
806.222656	9150.062500
805.001953	9140.135742
803.779297	9361.330078
802.556641	9009.864258
801.333984	9190.107422
800.109375	8985.985352
798.886719	9235.650391
797.664063	9205.280273
796.439453	9379.216797
795.216797	9124.147461
793.992188	9275.568359
792.767578	9247.252930
791.542969	9308.769531
790.318359	9253.924805
789.091797	9223.586914
787.867188	9270.789063
786.642578	9519.916992
785.416016	9320.269531
784.189453	9210.416992
782.962891	9072.064453
781.736328	9247.659180
780.509766	9256.078125
779.283203	9368.406250
778.056641	9338.093750
776.828125	9375.002930
775.601563	9401.716797
774.373047	9275.723633
773.144531	9337.048828
771.916016	9086.970703
770.687500	9001.803711
769.458984	9268.616211
768.230469	9246.499023
767.000000	9348.439453
765.771484	9139.259766
764.541016	9163.933594
763.310547	9196.726563
762.080078	9477.415039
760.849609	9317.127930
759.619141	9225.964844
758.388672	9362.291992
757.156250	9512.780273
755.925781	9238.921875
754.693359	9182.345703
753.462891	9389.599609
752.230469	9395.911133
750.998047	9355.563477
749.765625	9167.176758
748.531250	9199.885742
747.298828	9202.171875
746.064453	9283.507813
744.832031	9316.173828
743.597656	9028.689453
742.363281	9511.117188
741.128906	9442.448242
739.894531	9315.080078
738.660156	9434.764648
737.425781	9279.105469
736.189453	9336.009766
734.955078	9494.065430
733.718750	9204.959961
732.482422	9233.527344
731.246094	9466.333008
730.009766	9634.347656
728.773438	9076.575195
727.537109	9357.782227
726.298828	9188.256836
725.062500	9471.352539
723.824219	9291.769531
722.585938	9291.996094
721.347656	9463.851563
720.109375	9320.709961
718.871094	9238.174805
717.632813	9361.506836
716.392578	9139.779297
715.154297	9232.824219
713.914063	9204.821289
712.673828	9309.914063
711.433594	9231.504883
710.193359	9344.613281
708.953125	9465.738281
707.712891	9347.044922
706.472656	9327.106445
705.230469	9291.062500
703.988281	9170.456055
702.748047	9299.547852
701.505859	9241.385742
700.263672	9303.999023
699.021484	9360.549805
697.777344	9423.114258
696.535156	9346.868164
695.291016	9316.904297
694.048828	9379.438477
692.804688	9156.498047
691.560547	9293.401367
690.316406	9285.571289
689.072266	9235.554688
687.828125	9386.421875
686.582031	9304.270508
685.337891	9392.820313
684.091797	9463.267578
682.847656	9439.353516
681.601563	9521.802734
680.355469	9481.834961
679.109375	9373.680664
677.861328	9353.810547
676.615234	9281.814453
675.369141	9312.087891
674.121094	9332.327148
672.873047	9390.632813
671.625000	9184.442383
670.376953	9362.945313
669.128906	9293.029297
667.880859	9415.373047
666.632813	9449.578125
665.382813	9321.637695
664.134766	9291.806641
662.884766	9420.054688
661.634766	9332.202148
660.384766	9624.397461
659.134766	9388.560547
657.884766	9452.708984
656.632813	9326.936523
655.382813	9496.993164
654.130859	9217.402344
652.880859	9335.471680
651.628906	9505.424805
650.376953	9269.927734
649.125000	9274.110352
647.871094	9316.218750
646.619141	9228.583008
645.367188	9414.351563
644.113281	9342.690430
642.859375	9366.797852
641.607422	9311.125977
640.353516	9412.989258
639.097656	9343.374023
637.843750	9421.273438
636.589844	9371.609375
635.333984	9429.548828
634.080078	9226.524414
632.824219	9545.357422
631.568359	9238.849609
630.312500	9248.988281
629.056641	9478.061523
627.800781	9356.811523
626.544922	9456.451172
625.287109	9530.191406
624.029297	9333.424805
622.773438	9458.858398
621.515625	9351.642578
620.257813	9411.429688
619.000000	9431.447266
617.742188	9671.998047
616.482422	9382.067383
615.224609	9556.991211
613.964844	9503.492188
612.705078	9765.675781
611.445313	9690.321289
610.185547	9676.515625
608.925781	9865.096680
607.666016	10083.358398
606.406250	10055.598633
605.144531	9922.751953
603.884766	10025.882813
602.623047	10027.881836
601.361328	10166.623047
600.099609	10105.186523
598.837891	10025.944336
597.576172	10229.962891
596.312500	10233.895508
595.050781	10435.812500
593.787109	10326.872070
592.523438	10374.321289
591.259766	10496.942383
589.996094	10579.947266
588.732422	10427.547852
587.468750	10611.386719
586.205078	10548.010742
584.939453	10761.402344
583.673828	10609.084961
582.410156	10794.715820
581.144531	10915.080078
579.878906	10814.173828
578.611328	10847.593750
577.345703	10954.052734
576.080078	10928.208984
574.812500	11089.871094
573.546875	11020.597656
572.279297	11083.533203
571.011719	11063.599609
569.744141	10915.486328
568.476563	11021.780273
567.207031	11090.577148
565.939453	11117.956055
564.669922	10958.124023
563.402344	11125.396484
562.132813	11113.355469
560.863281	11142.675781
559.593750	11246.803711
558.322266	11374.513672
557.052734	11350.620117
555.783203	11116.179688
554.511719	11239.902344
553.240234	11296.696289
551.968750	11139.102539
550.697266	11227.352539
549.425781	11146.501953
548.154297	11199.334961
546.882813	11126.380859
545.609375	11310.831055
544.337891	11204.488281
543.064453	11351.534180
541.791016	11174.537109
540.517578	11246.928711
539.244141	11452.760742
537.970703	11346.491211
536.695313	11573.801758
535.421875	11336.121094
534.146484	11614.333984
532.871094	11453.209961
531.595703	11631.305664
530.320313	11284.036133
529.044922	11548.318359
527.769531	11479.417969
526.492188	11657.365234
525.216797	11514.045898
523.939453	11447.148438
522.662109	11648.486328
521.384766	11773.407227
520.107422	11694.754883
518.830078	11780.484375
517.552734	11668.604492
516.273438	11762.126953
514.996094	11789.127930
513.716797	11798.521484
512.437500	11866.549805
511.158203	11786.028320
509.878906	11988.846680
508.599609	12107.584961
507.318359	11962.609375
506.039063	12184.795898
504.757813	12057.431641
503.476563	12148.732422
502.197266	11960.926758
500.916016	12099.035156
499.632813	11872.296875
498.351563	12059.126953
497.070313	12033.333008
495.787109	12151.818359
494.503906	12012.960938
493.222656	12234.690430
491.939453	12220.569336
490.656250	12212.297852
489.371094	12100.802734
488.087891	12125.660156
486.804688	12164.134766
485.519531	12169.502930
484.234375	12151.515625
482.949219	12145.208008
481.666016	12251.732422
480.378906	12117.039063
479.093750	12101.017578
477.808594	12096.666016
476.521484	12072.877930
475.236328	11965.532227
473.949219	11935.949219
472.662109	12022.934570
471.375000	11719.494141
470.087891	12031.742188
468.798828	12128.362305
467.511719	11993.953125
466.222656	11925.581055
464.935547	11956.191406
463.646484	11728.778320
462.357422	12044.526367
461.068359	11875.359375
459.779297	11735.340820
458.488281	11940.408203
457.199219	11988.416992
455.908203	11863.958008
454.619141	11908.085938
453.328125	11793.375000
452.037109	12186.058594
450.746094	12212.668945
449.453125	11954.723633
448.162109	12145.868164
446.869141	12114.420898
445.578125	12365.425781
444.285156	12171.479492
442.992188	12141.977539
441.699219	12317.422852
440.406250	12351.690430
439.111328	12295.112305
437.818359	12149.673828
436.523438	12386.792969
435.230469	12347.622070
433.935547	12544.052734
432.640625	12570.506836
431.345703	12741.719727
430.048828	12675.487305
428.753906	12933.436523
427.457031	12799.671875
426.162109	12820.257813
424.865234	12580.508789
423.568359	13004.072266
422.271484	12957.137695
420.974609	13118.357422
419.677734	13011.686523
418.378906	12993.672852
417.082031	13243.382813
415.783203	13182.963867
414.484375	13261.187500
413.185547	13454.871094
411.886719	13277.049805
410.587891	13501.436523
409.287109	13310.208984
407.988281	13292.157227
406.687500	13081.817383
405.386719	13500.239258
404.085938	13391.815430
402.785156	13383.368164
401.484375	13248.110352
400.183594	13564.345703
398.880859	13238.960938
397.580078	13276.633789
396.277344	13473.639648
394.974609	13321.219727
393.671875	13266.733398
392.369141	13022.316406
391.066406	13244.149414
389.763672	13070.796875
388.458984	13064.340820
387.154297	13194.005859
385.851563	13038.016602
384.546875	13031.568359
383.242188	12883.336914
381.937500	13032.086914
380.630859	12790.065430
379.326172	12973.241211
378.019531	12838.539063
376.712891	12812.992188
375.408203	12864.004883
374.101563	12681.569336
372.792969	12703.891602
371.486328	12638.225586
370.179688	12530.518555
368.871094	12822.418945
367.564453	12521.663086
366.255859	12423.596680
364.947266	12396.262695
363.638672	12428.156250
362.330078	12272.869141
361.019531	12426.981445
359.710938	12187.754883
358.400391	12351.364258
357.089844	12207.665039
355.781250	12161.328125
354.470703	12166.512695
353.158203	12314.735352
351.847656	12165.434570
350.537109	12153.456055
349.224609	12152.917969
347.914063	12192.398438
346.601563	12163.272461
345.289063	12099.869141
343.976563	12249.795898
342.662109	12035.973633
341.349609	11966.920898
340.037109	11838.890625
338.722656	11826.993164
337.408203	12045.313477
336.093750	11630.109375
334.779297	11618.259766
333.464844	11771.838867
332.150391	11828.402344
330.833984	11797.509766
329.519531	11605.105469
328.203125	11467.874023
326.886719	11744.795898
325.570313	11569.607422
324.253906	11658.417969
322.937500	11650.374023
321.619141	11460.125000
320.302734	11579.263672
318.984375	11584.519531
317.666016	11584.082031
316.347656	11568.472656
315.029297	11507.362305
313.710938	11323.054688
312.392578	11455.340820
311.072266	11490.929688
309.753906	11596.603516
308.433594	11431.366211
307.113281	11567.308594
305.792969	11610.417969
304.472656	11642.151367
303.152344	11668.192383
301.830078	11675.300781
300.509766	11943.486328
299.187500	11481.440430
297.865234	11815.745117
296.542969	11616.723633
295.220703	11930.070313
293.898438	12054.291992
292.574219	11895.022461
291.251953	11673.472656
289.927734	11843.000977
288.603516	11834.945313
287.279297	11670.182617
285.955078	11847.158203
284.630859	12018.398438
283.306641	12008.424805
281.980469	11823.004883
280.656250	11782.894531
279.330078	11889.891602
278.003906	11934.625977
276.677734	11945.411133
275.351563	11765.841797
274.023438	11876.521484
272.697266	11693.269531
271.369141	11977.200195
270.042969	11858.027344
268.714844	11934.707031
267.386719	11747.824219
266.058594	11794.381836
264.728516	11662.168945
263.400391	11836.647461
262.070313	11821.088867
260.742188	11903.321289
259.412109	11793.750977
258.082031	11708.660156
256.751953	11896.105469
255.421875	11745.264648
254.089844	11786.097656
252.759766	11810.009766
251.427734	11807.622070
250.095703	11987.344727
248.763672	11898.577148
247.431641	11869.898438
246.099609	12021.353516
244.767578	12142.732422
243.433594	12057.753906
242.101563	12137.822266
240.767578	12165.364258
239.433594	12447.810547
238.099609	12104.223633
236.765625	12311.622070
235.431641	12367.202148
234.095703	12248.582031
232.761719	12234.870117
231.425781	12447.687500
230.089844	12330.994141
228.753906	12216.217773
227.417969	12122.068359
226.082031	12415.169922
224.744141	12395.826172
223.408203	12346.572266
222.070313	12448.763672
220.732422	12227.561523
219.394531	12359.633789
218.056641	12725.193359
216.718750	12322.876953
215.378906	12432.437500
214.041016	12534.484375
212.701172	12354.599609
211.361328	12564.873047
210.023438	12424.241211
208.681641	12279.933594
207.341797	12635.586914
206.001953	12558.431641
204.660156	12440.287109
203.320313	12430.312500
201.978516	12453.888672
200.636719	12525.904297
199.294922	12612.793945
197.953125	12768.567383
196.611328	12708.250977
195.267578	12690.782227
193.923828	12630.505859
192.582031	12773.118164
191.238281	12872.875000
189.894531	13071.191406
188.550781	12757.919922
187.205078	13010.108398
185.861328	12944.258789
184.515625	12921.189453
183.171875	13214.077148
181.826172	13142.649414
180.480469	13413.080078
179.134766	13386.216797
177.787109	13366.792969
176.441406	13306.530273
175.093750	13456.047852
173.748047	13297.428711
172.400391	13825.411133
171.052734	13262.360352
169.705078	13376.523438
168.355469	13637.136719
167.007813	13573.192383
165.660156	13446.249023
164.310547	13525.069336
162.960938	13507.506836
161.611328	13660.380859
160.261719	13550.190430
158.912109	13554.852539
157.560547	13489.159180
156.210938	13588.232422
154.859375	13659.504883
153.507813	13560.524414
152.156250	13604.024414
150.804688	13913.835938
149.453125	13896.223633
148.101563	13989.543945
146.748047	13864.716797
145.396484	14196.397461
144.042969	14030.930664
142.689453	14550.862305
141.335938	14280.116211
139.982422	14423.097656
138.626953	14516.175781
137.273438	14540.920898
135.917969	14539.821289
134.564453	14612.521484
133.208984	14788.491211
131.853516	14835.291016
130.496094	14976.109375
129.140625	15056.034180
127.785156	15172.789063
126.427734	15230.527344
125.070313	14916.076172
123.712891	15244.620117
122.355469	14948.708984
120.998047	15089.300781
119.640625	15148.834961
118.281250	15173.375000
116.923828	15326.715820
115.564453	15152.510742
114.205078	15134.726563
112.845703	15302.692383
111.486328	15266.497070
110.126953	15101.634766
108.765625	15252.961914
107.406250	15516.318359
106.044922	15318.434570
104.683594	15445.746094
103.322266	15729.102539
101.960938	15613.916992
100.599609	15698.868164
99.236328	15837.009766
97.875000	15791.598633
96.511719	15861.784180
95.148438	16014.480469
93.785156	16042.413086
92.421875	16233.512695
91.058594	16133.071289
89.693359	16153.630859
88.330078	15928.645508
86.964844	15901.604492
85.599609	16125.505859
84.234375	16116.747070
82.869141	16536.416016
81.503906	16373.814453
80.138672	16209.449219
78.771484	15939.023438
77.404297	16076.660156
76.037109	16097.183594
74.669922	16061.009766
73.302734	16050.446289
71.935547	16323.211914
70.568359	15875.817383
69.199219	15905.494141
67.832031	15779.879883
66.462891	15442.450195
65.093750	15369.935547
63.724609	15180.605469
62.353516	14987.701172
60.984375	14957.294922
59.613281	14518.194336
