#Wave		#Intensity
1319.062500	5463.790527
1317.935547	5508.139648
1316.808594	5480.541992
1315.679688	5643.585449
1314.552734	5194.885742
1313.423828	5450.987793
1312.294922	5514.252441
1311.167969	5517.688477
1310.039063	5332.877441
1308.908203	5555.554688
1307.779297	5406.225098
1306.650391	5380.901855
1305.521484	5468.453613
1304.390625	5197.523438
1303.261719	5530.636230
1302.130859	5516.367676
1301.000000	5407.010742
1299.869141	5322.015137
1298.738281	5431.588379
1297.607422	5408.505371
1296.476563	5274.937988
1295.343750	5254.101074
1294.212891	5155.954102
1293.080078	5305.213379
1291.949219	5397.002930
1290.816406	5384.989746
1289.683594	5297.926758
1288.550781	5349.939941
1287.417969	5141.547363
1286.285156	5400.959473
1285.152344	5402.190430
1284.017578	5414.448242
1282.884766	5252.500000
1281.750000	5381.627930
1280.617188	5098.507813
1279.482422	5344.422363
1278.347656	5123.108887
1277.212891	5320.461914
1276.078125	5268.838867
1274.943359	5362.586426
1273.806641	5066.563477
1272.671875	5354.044922
1271.535156	5335.468750
1270.400391	5143.043945
1269.263672	5208.124023
1268.126953	5279.780273
1266.990234	5344.811523
1265.853516	5227.292969
1264.716797	5226.348633
1263.580078	5328.725098
1262.441406	4998.073730
1261.304688	5157.589844
1260.166016	5194.008789
1259.029297	5131.561523
1257.890625	4981.283691
1256.751953	5270.246582
1255.613281	5183.667969
1254.474609	5241.999512
1253.335938	5254.220215
1252.195313	5057.973145
1251.056641	5162.368164
1249.916016	5415.887207
1248.777344	5243.841309
1247.636719	5150.796875
1246.496094	5290.176758
1245.355469	5227.844727
1244.214844	5233.473633
1243.074219	5221.570801
1241.933594	5097.942383
1240.791016	5114.542969
1239.650391	5192.457031
1238.507813	5353.547363
1237.367188	5396.362305
1236.224609	5209.337891
1235.082031	5236.843750
1233.939453	5487.516602
1232.796875	5046.813965
1231.654297	5312.740234
1230.509766	5034.052246
1229.367188	5337.053223
1228.222656	5235.529785
1227.080078	5287.036621
1225.935547	5200.854980
1224.791016	5346.296875
1223.646484	5268.873047
1222.501953	5097.562988
1221.357422	5140.312500
1220.212891	5231.077637
1219.066406	5354.552734
1217.921875	5198.627441
1216.775391	5171.500488
1215.628906	5486.905762
1214.484375	5191.438477
1213.337891	5275.551758
1212.191406	5298.580566
1211.042969	5230.037109
1209.896484	5148.439941
1208.750000	5223.781738
1207.601563	5268.591797
1206.455078	5330.812500
1205.306641	5168.665527
1204.158203	5370.255371
1203.011719	5269.124512
1201.863281	5427.083984
1200.712891	5415.216797
1199.564453	5333.716797
1198.416016	5171.743652
1197.267578	5366.586426
1196.117188	5243.814453
1194.966797	5242.862793
1193.818359	5404.973145
1192.667969	5275.739258
1191.517578	5209.580078
1190.367188	5386.818359
1189.216797	5242.449219
1188.064453	5352.278809
1186.914063	5275.293457
1185.763672	5369.876465
1184.611328	5177.852539
1183.458984	5519.868164
1182.306641	5202.013184
1181.156250	5467.956055
1180.003906	5206.630371
1178.849609	5285.938477
1177.697266	5343.530762
1176.544922	5255.829102
1175.390625	5348.090820
1174.238281	5531.352051
1173.083984	5181.448730
1171.929688	5330.006836
1170.777344	5389.692871
1169.623047	5449.356934
1168.466797	5526.322754
1167.312500	5525.316895
1166.158203	5260.218262
1165.003906	5430.240723
1163.847656	5485.513672
1162.691406	5501.823242
1161.537109	5362.381836
1160.380859	5294.360840
1159.224609	5375.565430
1158.068359	5562.674805
1156.912109	5719.454590
1155.753906	5487.169434
1154.597656	5667.673340
1153.441406	5683.923340
1152.283203	5510.089844
1151.125000	5662.415527
1149.966797	5801.730469
1148.808594	5932.359375
1147.650391	5644.210938
1146.492188	5774.819824
1145.333984	5743.560059
1144.175781	5895.675293
1143.015625	5739.308594
1141.857422	5928.027344
1140.697266	5689.781738
1139.537109	5968.977051
1138.376953	5909.696289
1137.216797	5938.785645
1136.056641	5909.693359
1134.896484	5822.451660
1133.736328	6153.055176
1132.574219	5927.990234
1131.414063	6161.572754
1130.251953	6186.277344
1129.089844	6079.694336
1127.927734	6274.389160
1126.765625	6307.664063
1125.603516	6340.926270
1124.441406	6286.003906
1123.279297	6306.356445
1122.115234	6339.599609
1120.953125	6471.700684
1119.789063	6240.578613
1118.625000	6641.219238
1117.462891	6401.557617
1116.298828	6393.943359
1115.132813	6497.995605
1113.968750	6541.893555
1112.804688	6465.565430
1111.640625	6573.838867
1110.474609	6669.197754
1109.308594	6871.791992
1108.144531	6580.955078
1106.978516	6976.508301
1105.812500	6979.519043
1104.646484	7106.872070
1103.480469	6934.093262
1102.312500	7050.691895
1101.146484	7169.390137
1099.980469	7378.020020
1098.812500	7580.147461
1097.644531	7236.118652
1096.476563	7243.356445
1095.310547	7389.737793
1094.140625	7392.663574
1092.972656	7502.583984
1091.804688	7490.510254
1090.636719	7829.259766
1089.466797	7705.915039
1088.298828	7482.111816
1087.128906	7532.050293
1085.958984	7701.673340
1084.789063	7755.826660
1083.619141	7643.290039
1082.449219	7921.754395
1081.279297	7988.651855
1080.107422	8053.388672
1078.937500	8145.858887
1077.765625	8131.553711
1076.595703	8230.377930
1075.423828	8252.339844
1074.251953	8252.957031
1073.080078	8520.230469
1071.908203	8448.280273
1070.736328	8493.640625
1069.562500	8402.532227
1068.390625	8626.945313
1067.216797	8633.883789
1066.044922	8659.998047
1064.871094	8760.668945
1063.697266	8837.871094
1062.523438	8797.910156
1061.349609	8936.826172
1060.173828	8947.955078
1059.000000	8967.592773
1057.826172	9078.734375
1056.650391	9211.112305
1055.474609	9228.561523
1054.300781	9239.624023
1053.125000	9295.338867
1051.949219	9172.432617
1050.773438	9481.110352
1049.595703	9564.379883
1048.419922	9568.991211
1047.244141	9584.224609
1046.066406	9669.550781
1044.888672	9493.611328
1043.710938	9712.700195
1042.535156	9780.969727
1041.357422	10214.313477
1040.177734	10049.012695
1039.000000	9962.282227
1037.822266	10183.200195
1036.642578	9950.120117
1035.464844	10141.267578
1034.285156	10342.946289
1033.105469	10285.916992
1031.925781	10445.102539
1030.746094	10152.848633
1029.566406	10572.605469
1028.386719	10621.492188
1027.207031	10604.703125
1026.025391	10551.920898
1024.845703	10774.392578
1023.664063	10649.625000
1022.482422	10736.544922
1021.300781	10685.890625
1020.119141	10808.735352
1018.937500	10804.620117
1017.755859	11124.076172
1016.574219	10969.777344
1015.390625	11062.878906
1014.207031	11090.421875
1013.025391	11029.196289
1011.841797	10987.008789
1010.658203	11225.797852
1009.474609	11118.113281
1008.291016	11422.250977
1007.107422	11276.564453
1005.921875	11333.580078
1004.738281	11261.832031
1003.552734	11169.006836
1002.367188	11230.228516
1001.183594	11489.707031
999.998047	11394.780273
998.812500	11384.232422
997.626953	11318.874023
996.439453	11474.858398
995.253906	11365.250977
994.066406	11533.809570
992.880859	11306.258789
991.693359	11527.419922
990.505859	11428.410156
989.318359	11396.810547
988.130859	11344.171875
986.943359	11502.018555
985.755859	11529.340820
984.566406	11369.406250
983.378906	11411.465820
982.189453	11493.468750
981.001953	11299.983398
979.812500	11707.834961
978.623047	11352.532227
977.433594	11436.583008
976.242188	11234.845703
975.052734	11302.080078
973.863281	11356.685547
972.671875	11341.971680
971.482422	11617.004883
970.291016	11377.631836
969.099609	11346.129883
967.908203	11251.685547
966.716797	11316.725586
965.525391	11253.785156
964.332031	11507.550781
963.140625	11511.696289
961.947266	11354.412109
960.755859	11289.412109
959.562500	11239.106445
958.369141	11463.300781
957.175781	11410.883789
955.982422	11268.422852
954.789063	11327.048828
953.593750	11207.686523
952.400391	11186.753906
951.205078	11435.817383
950.009766	11368.812500
948.816406	11454.559570
947.621094	11400.125977
946.425781	11418.909180
945.230469	11264.132813
944.033203	11354.013672
942.837891	11155.412109
941.640625	11282.894531
940.445313	11289.142578
939.248047	11172.133789
938.050781	11226.437500
936.853516	11428.985352
935.656250	11343.332031
934.458984	11147.074219
933.261719	11268.125000
932.062500	11272.275391
930.865234	11343.184570
929.666016	11243.022461
928.466797	10998.997070
927.269531	11115.788086
926.070313	11026.146484
924.869141	11178.321289
923.669922	11094.952148
922.470703	11099.122070
921.269531	11022.046875
920.070313	11259.499023
918.869141	10732.625000
917.667969	10965.876953
916.466797	11032.512695
915.265625	10968.005859
914.064453	10866.067383
912.863281	10943.083984
911.662109	10608.221680
910.458984	10864.106445
909.257813	10805.925781
908.054688	10762.318359
906.851563	10604.410156
905.648438	10789.445313
904.445313	10675.220703
903.242188	10687.755859
902.039063	10403.285156
900.833984	10480.236328
899.630859	10548.853516
898.425781	10310.234375
897.220703	10366.404297
896.015625	10470.276367
894.810547	10623.898438
893.605469	10372.996094
892.400391	10219.656250
891.195313	10226.025391
889.988281	10197.150391
888.783203	10211.809570
887.576172	10068.973633
886.369141	10330.200195
885.162109	10017.535156
883.955078	9868.601563
882.748047	9775.631836
881.541016	10028.432617
880.332031	9610.493164
879.125000	9782.517578
877.916016	9695.838867
876.707031	9621.603516
875.500000	9582.557617
874.291016	9491.827148
873.082031	9605.817383
871.871094	9372.482422
870.662109	9300.442383
869.453125	9329.680664
868.242188	9346.511719
867.031250	9047.299805
865.822266	9295.479492
864.611328	9070.722656
863.400391	8864.628906
862.187500	8939.322266
860.976563	8941.758789
859.765625	9026.723633
858.552734	8643.385742
857.341797	8963.496094
856.128906	8813.329102
854.916016	8737.440430
853.703125	8626.537109
852.490234	8682.608398
851.277344	8596.482422
850.064453	8487.727539
848.849609	8393.430664
847.636719	8577.181641
846.421875	8464.372070
845.207031	8398.952148
843.992188	8352.079102
842.777344	8443.095703
841.562500	8145.229492
840.347656	8277.389648
839.130859	8088.666992
837.916016	8050.119629
836.699219	8204.834961
835.482422	8219.720703
834.267578	8109.242188
833.050781	7994.695801
831.833984	8097.945313
830.615234	8110.783691
829.398438	7942.909668
828.181641	8378.710938
826.962891	8073.316895
825.744141	8069.729492
824.527344	7754.249512
823.308594	8078.970215
822.089844	7841.550781
820.869141	7934.394043
819.650391	7963.639648
818.431641	8044.123535
817.210938	7989.302734
815.992188	8094.339844
814.771484	8029.285645
813.550781	8046.192383
812.330078	7999.603027
811.109375	7799.457520
809.888672	7867.578125
808.666016	7907.015625
807.445313	7991.459961
806.222656	8065.641113
805.001953	7845.214844
803.779297	8121.878906
802.556641	7989.455566
801.333984	7826.414063
800.109375	7781.994141
798.886719	8017.582520
797.664063	7891.407715
796.439453	8194.301758
795.216797	7890.437012
793.992188	7952.237305
792.767578	7971.136230
791.542969	8041.062012
790.318359	7917.064941
789.091797	8264.497070
787.867188	7997.687988
786.642578	8200.142578
785.416016	7945.683105
784.189453	7909.499023
782.962891	7936.527344
781.736328	8004.310547
780.509766	8027.233398
779.283203	8054.221680
778.056641	8036.382813
776.828125	8093.909180
775.601563	7841.891113
774.373047	8198.713867
773.144531	8215.462891
771.916016	8228.134766
770.687500	8220.454102
769.458984	8141.571777
768.230469	8107.467285
767.000000	8272.667969
765.771484	7888.838379
764.541016	8283.724609
763.310547	8276.038086
762.080078	8160.655762
760.849609	8213.944336
759.619141	8393.149414
758.388672	8292.025391
757.156250	8385.866211
755.925781	8368.014648
754.693359	8449.625000
753.462891	8320.155273
752.230469	8383.482422
750.998047	8446.784180
749.765625	8353.894531
748.531250	8226.567383
747.298828	8403.393555
746.064453	8231.511719
744.832031	8345.443359
743.597656	8441.094727
742.363281	8595.457031
741.128906	8407.465820
739.894531	8634.673828
738.660156	8392.081055
737.425781	8489.653320
736.189453	8631.710938
734.955078	8538.993164
733.718750	8474.632813
732.482422	8343.548828
731.246094	8548.213867
730.009766	8724.493164
728.773438	8433.735352
727.537109	8614.009766
726.298828	8602.245117
725.062500	8655.134766
723.824219	8457.530273
722.585938	8688.147461
721.347656	8613.780273
720.109375	8608.080078
718.871094	8590.271484
717.632813	8746.016602
716.392578	8621.253906
715.154297	8768.862305
713.914063	8595.738281
712.673828	8872.345703
711.433594	8630.720703
710.193359	8790.305664
708.953125	8861.156250
707.712891	8609.597656
706.472656	8624.048828
705.230469	8761.353516
703.988281	8785.836914
702.748047	8554.618164
701.505859	8758.281250
700.263672	8847.151367
699.021484	9004.398438
697.777344	8797.455078
696.535156	8990.854492
695.291016	8985.091797
694.048828	9041.658203
692.804688	8935.375000
691.560547	8796.976563
690.316406	8915.836914
689.072266	8775.484375
687.828125	8952.552734
686.582031	9005.040039
685.337891	9067.544922
684.091797	8852.993164
682.847656	8821.168945
681.601563	8741.196289
680.355469	9104.648438
679.109375	8862.169922
677.861328	9024.903320
676.615234	9021.145508
675.369141	8955.241211
674.121094	9043.698242
672.873047	9140.135742
671.625000	8946.015625
670.376953	9008.378906
669.128906	8932.524414
667.880859	9056.939453
666.632813	9089.212891
665.382813	9177.519531
664.134766	9209.755859
662.884766	9388.041016
661.634766	8846.086914
660.384766	9130.376953
659.134766	9138.598633
657.884766	9088.835938
656.632813	9013.106445
655.382813	9021.343750
654.130859	9047.560547
652.880859	9027.818359
651.628906	8994.101563
650.376953	9038.279297
649.125000	8886.774414
647.871094	9122.587891
646.619141	9118.813477
645.367188	9027.242188
644.113281	8907.775391
642.859375	8971.860352
641.607422	9181.500000
640.353516	9085.997070
639.097656	8831.053711
637.843750	8996.748047
636.589844	9042.816406
635.333984	9128.711914
634.080078	9013.390625
632.824219	9033.536133
631.568359	8900.356445
630.312500	9022.043945
629.056641	9139.702148
627.800781	9096.125977
626.544922	9096.337891
625.287109	9148.267578
624.029297	9174.321289
622.773438	8967.720703
621.515625	9301.942383
620.257813	9095.396484
619.000000	9411.575195
617.742188	9455.430664
616.482422	9290.690430
615.224609	9384.203125
613.964844	9308.894531
612.705078	9517.513672
611.445313	9311.204102
610.185547	9458.218750
608.925781	9545.651367
607.666016	9527.911133
606.406250	9851.313477
605.144531	9748.250977
603.884766	9774.095703
602.623047	9873.271484
601.361328	10081.405273
600.099609	9914.970703
598.837891	10067.544922
597.576172	10000.208984
596.312500	10138.843750
595.050781	10386.315430
593.787109	10293.221680
592.523438	10334.740234
591.259766	10396.029297
589.996094	10352.442383
588.732422	10356.342773
587.468750	10544.150391
586.205078	10172.354492
584.939453	10514.309570
583.673828	10407.496094
582.410156	10581.311523
581.144531	10561.451172
579.878906	10608.753906
578.611328	10922.635742
577.345703	10600.631836
576.080078	10742.650391
574.812500	10793.825195
573.546875	11028.491211
572.279297	10844.817383
571.011719	11065.571289
569.744141	11014.090820
568.476563	10978.403320
567.207031	11017.638672
565.939453	11145.548828
564.669922	11206.410156
563.402344	11066.292969
562.132813	10947.896484
560.863281	11130.859375
559.593750	11250.741211
558.322266	11281.989258
557.052734	11204.973633
555.783203	11303.122070
554.511719	11135.628906
553.240234	11076.388672
551.968750	11103.702148
550.697266	11148.702148
549.425781	10910.596680
548.154297	11122.680664
546.882813	11130.310547
545.609375	11145.795898
544.337891	11277.168945
543.064453	11092.294922
541.791016	11152.937500
540.517578	10952.455078
539.244141	11336.957031
537.970703	11417.136719
536.695313	11071.531250
535.421875	11314.543945
534.146484	11435.863281
532.871094	11394.385742
531.595703	11286.268555
530.320313	11186.033203
529.044922	11362.150391
527.769531	11128.707031
526.492188	11255.791992
525.216797	11423.954102
523.939453	11398.195313
522.662109	11319.587891
521.384766	11556.142578
520.107422	11542.112305
518.830078	11649.394531
517.552734	11547.322266
516.273438	11615.442383
514.996094	11601.409180
513.716797	11642.120117
512.437500	11590.947266
511.158203	11731.309570
509.878906	11473.029297
508.599609	11609.451172
507.318359	11517.306641
506.039063	11614.610352
504.757813	11674.780273
503.476563	11682.223633
502.197266	11855.543945
500.916016	11613.201172
499.632813	11963.982422
498.351563	11932.352539
497.070313	11809.084961
495.787109	12030.944336
494.503906	11833.634766
493.222656	11862.465820
491.939453	11830.882813
490.656250	11758.403320
489.371094	11808.653320
488.087891	11728.416992
486.804688	11778.651367
485.519531	11972.907227
484.234375	11842.083984
482.949219	11806.652344
481.666016	11728.436523
480.378906	11714.434570
479.093750	11735.439453
477.808594	11910.025391
476.521484	11509.179688
475.236328	11572.964844
473.949219	11949.550781
472.662109	11622.752930
471.375000	11597.132813
470.087891	11594.824219
468.798828	11602.223633
467.511719	11592.149414
466.222656	11756.740234
464.935547	11641.861328
463.646484	11484.348633
462.357422	11668.255859
461.068359	11568.973633
459.779297	11529.832031
458.488281	11711.679688
457.199219	11662.833984
455.908203	11619.819336
454.619141	11663.996094
453.328125	11529.965820
452.037109	11734.866211
450.746094	11763.502930
449.453125	11730.185547
448.162109	11718.168945
446.869141	11874.493164
445.578125	11721.231445
444.285156	11819.467773
442.992188	11747.494141
441.699219	11863.083984
440.406250	12084.940430
439.111328	12080.594727
437.818359	12217.300781
436.523438	12040.998047
435.230469	12187.313477
433.935547	12258.258789
432.640625	12217.196289
431.345703	12263.011719
430.048828	12295.299805
428.753906	12460.708984
427.457031	12589.398438
426.162109	12648.601563
424.865234	12426.241211
423.568359	12421.829102
422.271484	12542.709961
420.974609	12694.376953
419.677734	12651.375000
418.378906	12650.770508
417.082031	12819.656250
415.783203	12911.448242
414.484375	12920.416016
413.185547	12767.690430
411.886719	12801.700195
410.587891	13214.744141
409.287109	13065.896484
407.988281	13072.897461
406.687500	12879.908203
405.386719	13050.359375
404.085938	12890.126953
402.785156	13193.110352
401.484375	13190.467773
400.183594	13024.538086
398.880859	12875.959961
397.580078	12906.024414
396.277344	12943.755859
394.974609	12900.852539
393.671875	12733.223633
392.369141	12836.200195
391.066406	12687.833984
389.763672	12556.788086
388.458984	12389.359375
387.154297	12392.626953
385.851563	12547.318359
384.546875	12562.048828
383.242188	12459.895508
381.937500	12495.708984
380.630859	12518.099609
379.326172	12456.226563
378.019531	12279.508789
376.712891	12200.480469
375.408203	12115.741211
374.101563	12111.395508
372.792969	11998.013672
371.486328	12146.697266
370.179688	12180.588867
368.871094	12139.907227
367.564453	11862.225586
366.255859	11863.665039
364.947266	12050.435547
363.638672	11914.295898
362.330078	11984.477539
361.019531	11833.128906
359.710938	11723.840820
358.400391	11700.489258
357.089844	11595.086914
355.781250	11655.718750
354.470703	11676.266602
353.158203	11815.050781
351.847656	11559.070313
350.537109	11631.095703
349.224609	11684.032227
347.914063	11715.984375
346.601563	11673.617188
345.289063	11372.201172
343.976563	11607.976563
342.662109	11489.489258
341.349609	11580.460938
340.037109	11496.286133
338.722656	11339.832031
337.408203	11379.406250
336.093750	11455.106445
334.779297	11310.164063
333.464844	11288.872070
332.150391	11278.995117
330.833984	11198.796875
329.519531	11293.456055
328.203125	11141.088867
326.886719	11176.835938
325.570313	11301.828125
324.253906	11119.168945
322.937500	11126.420898
321.619141	11053.953125
320.302734	10956.844727
318.984375	11032.423828
317.666016	10870.865234
316.347656	10959.705078
315.029297	10875.964844
313.710938	10998.888672
312.392578	10981.509766
311.072266	11079.727539
309.753906	11299.157227
308.433594	10978.657227
307.113281	11103.328125
305.792969	11216.587891
304.472656	11297.619141
303.152344	10962.234375
301.830078	11240.079102
300.509766	10957.812500
299.187500	11222.304688
297.865234	11314.596680
296.542969	11164.835938
295.220703	11260.882813
293.898438	11379.569336
292.574219	11462.304688
291.251953	11178.498047
289.927734	11291.460938
288.603516	11223.085938
287.279297	11347.322266
285.955078	11422.426758
284.630859	11469.191406
283.306641	11436.684570
281.980469	11404.191406
280.656250	11526.375977
279.330078	11343.012695
278.003906	11370.888672
276.677734	11323.351563
275.351563	11264.525391
274.023438	11337.621094
272.697266	11516.184570
271.369141	11383.896484
270.042969	11358.999023
268.714844	11479.083008
267.386719	11459.822266
266.058594	11376.582031
264.728516	11267.032227
263.400391	11629.712891
262.070313	11473.133789
260.742188	11508.424805
259.412109	11410.214844
258.082031	11488.735352
256.751953	11414.999023
255.421875	11448.391602
254.089844	11524.977539
252.759766	11501.987305
251.427734	11433.939453
250.095703	11737.647461
248.763672	11583.234375
247.431641	11807.968750
246.099609	11522.261719
244.767578	11660.625000
243.433594	11748.291992
242.101563	11775.918945
240.767578	11734.166992
239.433594	11677.437500
238.099609	11871.846680
236.765625	11991.230469
235.431641	11810.846680
234.095703	11851.533203
232.761719	11993.318359
231.425781	12239.882813
230.089844	12009.055664
228.753906	11995.397461
227.417969	12026.648438
226.082031	12016.732422
224.744141	11907.698242
223.408203	11897.809570
222.070313	12035.612305
220.732422	11993.925781
219.394531	12049.428711
218.056641	12168.431641
216.718750	12136.082031
215.378906	12184.049805
214.041016	12218.927734
212.701172	12022.305664
211.361328	11950.814453
210.023438	12009.974609
208.681641	11875.080078
207.341797	12199.105469
206.001953	12185.446289
204.660156	12244.509766
203.320313	12044.428711
201.978516	12008.441406
200.636719	12061.913086
199.294922	12189.883789
197.953125	12276.823242
196.611328	12482.914063
195.267578	12433.838867
193.923828	12600.720703
192.582031	12380.414063
191.238281	12586.314453
189.894531	12516.791016
188.550781	12696.539063
187.205078	12413.161133
185.861328	12700.693359
184.515625	12646.072266
183.171875	12885.119141
181.826172	12676.255859
180.480469	12976.504883
179.134766	13025.883789
177.787109	12921.109375
176.441406	13145.001953
175.093750	13125.633789
173.748047	13375.375977
172.400391	13188.970703
171.052734	13117.659180
169.705078	13012.991211
168.355469	13227.318359
167.007813	13317.338867
165.660156	13071.815430
164.310547	13267.466797
162.960938	13292.572266
161.611328	13367.684570
160.261719	13040.854492
158.912109	13288.199219
157.560547	13257.737305
156.210938	13290.220703
154.859375	13357.852539
153.507813	13338.494141
152.156250	13374.639648
150.804688	13473.653320
149.453125	13348.880859
148.101563	13420.126953
146.748047	13554.188477
145.396484	13806.467773
144.042969	13644.774414
142.689453	13828.583984
141.335938	13912.585938
139.982422	14112.883789
138.626953	14034.333984
137.273438	14192.072266
135.917969	14194.733398
134.564453	14566.395508
133.208984	14268.302734
131.853516	14698.815430
130.496094	14592.579102
129.140625	14821.907227
127.785156	14874.199219
126.427734	14657.424805
125.070313	14665.509766
123.712891	14848.583984
122.355469	14922.925781
120.998047	14768.917969
119.640625	14642.585938
118.281250	14726.125000
116.923828	14793.068359
115.564453	15055.001953
114.205078	14864.332031
112.845703	14870.516602
111.486328	14867.504883
110.126953	14965.600586
108.765625	14857.807617
107.406250	15154.320313
106.044922	15202.692383
104.683594	15142.671875
103.322266	15293.866211
101.960938	15108.998047
100.599609	15164.681641
99.236328	15548.863281
97.875000	15393.414063
96.511719	15359.109375
95.148438	15629.296875
93.785156	15701.319336
92.421875	15969.493164
91.058594	15980.924805
89.693359	15579.988281
88.330078	15822.369141
86.964844	15815.501953
85.599609	16008.282227
84.234375	15970.248047
82.869141	16003.632813
81.503906	15700.191406
80.138672	15880.026367
78.771484	15606.007813
77.404297	15461.986328
76.037109	15725.893555
74.669922	15678.823242
73.302734	15829.224609
71.935547	15623.124023
70.568359	15532.240234
69.199219	15373.788086
67.832031	15346.928711
66.462891	15033.331055
65.093750	14822.118164
63.724609	14614.642578
62.353516	14463.834961
60.984375	14510.181641
59.613281	14069.346680
