#Wave		#Intensity
1319.062500	5379.527832
1317.935547	5193.262207
1316.808594	5136.899414
1315.679688	5087.207031
1314.552734	5150.561035
1313.423828	5191.733398
1312.294922	4982.544922
1311.167969	5262.957520
1310.039063	5075.978027
1308.908203	5123.775879
1307.779297	5127.279785
1306.650391	5201.612305
1305.521484	5165.265137
1304.390625	5040.424805
1303.261719	5057.213867
1302.130859	5341.630859
1301.000000	5130.579102
1299.869141	5069.954590
1298.738281	5073.461426
1297.607422	5105.700195
1296.476563	5113.618164
1295.343750	5083.972656
1294.212891	5030.037598
1293.080078	5203.614746
1291.949219	5006.139648
1290.816406	4994.197266
1289.683594	4761.511230
1288.550781	4963.702637
1287.417969	4991.493652
1286.285156	4955.291992
1285.152344	4791.162598
1284.017578	4975.558105
1282.884766	4882.046387
1281.750000	4896.598145
1280.617188	4750.230957
1279.482422	4958.742676
1278.347656	4823.434570
1277.212891	4890.859375
1276.078125	4854.732910
1274.943359	4955.161621
1273.806641	4901.421387
1272.671875	4915.946777
1271.535156	4908.455566
1270.400391	4953.783691
1269.263672	4851.674316
1268.126953	4899.196289
1266.990234	5039.079590
1265.853516	4950.204590
1264.716797	4663.477051
1263.580078	5078.116699
1262.441406	4837.625488
1261.304688	4959.812500
1260.166016	4895.199707
1259.029297	4973.396973
1257.890625	4792.398926
1256.751953	5013.322266
1255.613281	4713.822266
1254.474609	4943.459961
1253.335938	4808.687012
1252.195313	5003.114258
1251.056641	5054.864746
1249.916016	5027.627930
1248.777344	4721.869629
1247.636719	4918.364258
1246.496094	4842.934082
1245.355469	4984.536133
1244.214844	4722.837402
1243.074219	4906.041504
1241.933594	4909.535645
1240.791016	4853.887695
1239.650391	4800.449707
1238.507813	4891.543945
1237.367188	4702.387695
1236.224609	4835.053223
1235.082031	5037.699219
1233.939453	4942.703125
1232.796875	4915.557129
1231.654297	5015.278809
1230.509766	4915.964355
1229.367188	5059.377930
1228.222656	4824.557129
1227.080078	4932.964844
1225.935547	4903.663086
1224.791016	4946.471680
1223.646484	5013.293457
1222.501953	5099.747070
1221.357422	5098.823242
1220.212891	5047.684082
1219.066406	4948.541016
1217.921875	4921.454590
1216.775391	5208.595703
1215.628906	5142.201172
1214.484375	4814.077637
1213.337891	4841.556641
1212.191406	5045.644531
1211.042969	5182.075195
1209.896484	4910.853516
1208.750000	4883.811035
1207.601563	5068.132324
1206.455078	5104.247559
1205.306641	5149.062500
1204.158203	5095.862793
1203.011719	4986.072266
1201.863281	4961.221191
1200.712891	4890.671875
1199.564453	5070.403809
1198.416016	5039.023438
1197.267578	5155.577637
1196.117188	5071.993164
1194.966797	5064.548828
1193.818359	5009.275391
1192.667969	5151.834473
1191.517578	5079.177246
1190.367188	4984.816895
1189.216797	5001.291992
1188.064453	5132.887207
1186.914063	5027.708496
1185.763672	5094.108398
1184.611328	5108.379883
1183.458984	5244.200195
1182.306641	5180.311035
1181.156250	5181.539063
1180.003906	5067.787109
1178.849609	5123.260742
1177.697266	5039.920898
1176.544922	5223.305176
1175.390625	5168.159180
1174.238281	5334.113770
1173.083984	5285.467773
1171.929688	5098.172852
1170.777344	5270.547363
1169.623047	5169.958008
1168.466797	5270.795410
1167.312500	5191.892578
1166.158203	5169.300781
1165.003906	5151.045410
1163.847656	5282.106445
1162.691406	5320.087891
1161.537109	5342.913574
1160.380859	5396.008789
1159.224609	5204.740723
1158.068359	5422.148926
1156.912109	5371.445313
1155.753906	5357.500000
1154.597656	5427.829102
1153.441406	5450.604004
1152.283203	5374.011719
1151.125000	5593.309082
1149.966797	5464.897949
1148.808594	5517.871094
1147.650391	5585.934082
1146.492188	5705.763672
1145.333984	5504.065430
1144.175781	5632.494629
1143.015625	5640.094727
1141.857422	5688.663574
1140.697266	5588.447754
1139.537109	5634.852539
1138.376953	5780.381348
1137.216797	5796.564941
1136.056641	5707.173828
1134.896484	5805.219238
1133.736328	5868.769531
1132.574219	5934.449707
1131.414063	5941.977539
1130.251953	5996.857422
1129.089844	5905.373535
1127.927734	5884.929688
1126.765625	5976.360840
1125.603516	6115.079102
1124.441406	6023.639160
1123.279297	6226.801270
1122.115234	5999.939941
1120.953125	6181.538086
1119.789063	6143.875488
1118.625000	6286.706055
1117.462891	6377.927734
1116.298828	6346.691895
1115.132813	6240.309082
1113.968750	6486.071777
1112.804688	6461.272461
1111.640625	6550.230957
1110.474609	6529.719727
1109.308594	6620.777344
1108.144531	6645.305664
1106.978516	6671.969238
1105.812500	6707.199707
1104.646484	6695.252441
1103.480469	6826.920410
1102.312500	6819.240723
1101.146484	6877.986328
1099.980469	6981.697754
1098.812500	7048.958984
1097.644531	7103.345703
1096.476563	7384.669434
1095.310547	7246.310059
1094.140625	7279.226563
1092.972656	7258.632324
1091.804688	7205.952148
1090.636719	7461.327637
1089.466797	7305.968750
1088.298828	7347.395508
1087.128906	7403.771973
1085.958984	7800.001953
1084.789063	7377.545898
1083.619141	7540.724121
1082.449219	7607.704102
1081.279297	7875.443359
1080.107422	7705.284180
1078.937500	7943.013184
1077.765625	7909.531738
1076.595703	7735.189453
1075.423828	8000.523438
1074.251953	7943.578125
1073.080078	7935.718262
1071.908203	8326.707031
1070.736328	8291.055664
1069.562500	8204.248047
1068.390625	8262.426758
1067.216797	8248.119141
1066.044922	8427.728516
1064.871094	8398.481445
1063.697266	8350.073242
1062.523438	8570.028320
1061.349609	8389.586914
1060.173828	8658.418945
1059.000000	8546.139648
1057.826172	8646.717773
1056.650391	8881.307617
1055.474609	8983.913086
1054.300781	8920.576172
1053.125000	8986.983398
1051.949219	9029.977539
1050.773438	9007.054688
1049.595703	9096.788086
1048.419922	9243.862305
1047.244141	9257.030273
1046.066406	9193.720703
1044.888672	9506.354492
1043.710938	9411.168945
1042.535156	9558.047852
1041.357422	9473.500000
1040.177734	9427.183594
1039.000000	9501.832031
1037.822266	9657.068359
1036.642578	9551.351563
1035.464844	9825.281250
1034.285156	9914.640625
1033.105469	9925.528320
1031.925781	9915.216797
1030.746094	9593.393555
1029.566406	10019.609375
1028.386719	10007.166016
1027.207031	10170.518555
1026.025391	10240.635742
1024.845703	10005.851563
1023.664063	10365.973633
1022.482422	10201.093750
1021.300781	10093.405273
1020.119141	10398.303711
1018.937500	10328.692383
1017.755859	10536.150391
1016.574219	10346.013672
1015.390625	10551.276367
1014.207031	10414.047852
1013.025391	10325.474609
1011.841797	10585.560547
1010.658203	10619.511719
1009.474609	10613.320313
1008.291016	10505.768555
1007.107422	10520.711914
1005.921875	10666.526367
1004.738281	10531.584961
1003.552734	10639.360352
1002.367188	10563.545898
1001.183594	10717.679688
999.998047	10869.646484
998.812500	10745.332031
997.626953	10631.604492
996.439453	10800.362305
995.253906	10678.235352
994.066406	10600.400391
992.880859	10522.593750
991.693359	10558.551758
990.505859	10720.846680
989.318359	10800.967773
988.130859	10731.599609
986.943359	10529.661133
985.755859	10399.343750
984.566406	10780.318359
983.378906	10807.762695
982.189453	10597.545898
981.001953	10725.943359
979.812500	10597.808594
978.623047	10597.939453
977.433594	10514.006836
976.242188	10472.128906
975.052734	10680.254883
973.863281	10615.255859
972.671875	10350.783203
971.482422	10523.121094
970.291016	10363.721680
969.099609	10792.045898
967.908203	10697.705078
966.716797	10601.300781
965.525391	10272.094727
964.332031	10253.402344
963.140625	10530.371094
961.947266	10348.112305
960.755859	10417.449219
959.562500	10212.225586
958.369141	10465.945313
957.175781	10386.481445
955.982422	10319.613281
954.789063	10516.627930
953.593750	10418.353516
952.400391	10284.529297
951.205078	10343.303711
950.009766	10414.611328
948.816406	10328.979492
947.621094	10111.597656
946.425781	10187.088867
945.230469	10204.003906
944.033203	10195.825195
942.837891	10379.947266
941.640625	10185.743164
940.445313	10254.878906
939.248047	10332.343750
938.050781	10213.447266
936.853516	10148.888672
935.656250	10155.340820
934.458984	10234.851563
933.261719	10310.157227
932.062500	10172.591797
930.865234	10003.783203
929.666016	9937.247070
928.466797	10123.081055
927.269531	9933.523438
926.070313	10004.627930
924.869141	9931.884766
923.669922	10021.716797
922.470703	10036.506836
921.269531	10036.708008
920.070313	9855.707031
918.869141	9908.000000
917.667969	9841.599609
916.466797	9689.876953
915.265625	9892.017578
914.064453	9761.149414
912.863281	9936.153320
911.662109	9693.002930
910.458984	9734.855469
909.257813	9643.618164
908.054688	9485.890625
906.851563	9457.087891
905.648438	9457.388672
904.445313	9517.942383
903.242188	9547.312500
902.039063	9408.440430
900.833984	9342.298828
899.630859	9280.333984
898.425781	9330.481445
897.220703	9150.245117
896.015625	9206.622070
894.810547	8953.866211
893.605469	9026.850586
892.400391	9047.962891
891.195313	8782.936523
889.988281	9023.825195
888.783203	9092.593750
887.576172	8945.824219
886.369141	8966.928711
885.162109	8785.022461
883.955078	8741.945313
882.748047	8740.296875
881.541016	8672.399414
880.332031	8600.387695
879.125000	8540.819336
877.916016	8487.479492
876.707031	8490.015625
875.500000	8291.921875
874.291016	8397.889648
873.082031	8232.967773
871.871094	8229.345703
870.662109	8182.322266
869.453125	7901.815918
868.242188	8276.332031
867.031250	7828.599609
865.822266	7864.293457
864.611328	7718.270020
863.400391	7762.228027
862.187500	7971.291016
860.976563	7544.673340
859.765625	7790.835938
858.552734	7626.395996
857.341797	7693.014160
856.128906	7415.239258
854.916016	7632.374512
853.703125	7463.964355
852.490234	7437.819824
851.277344	7444.652832
850.064453	7243.410156
848.849609	7233.798828
847.636719	7458.956055
846.421875	7280.471680
845.207031	7268.798828
843.992188	7049.253906
842.777344	7280.446777
841.562500	6861.414551
840.347656	6969.134277
839.130859	7146.737305
837.916016	6997.332520
836.699219	7000.116211
835.482422	7212.553223
834.267578	6950.191895
833.050781	6681.765625
831.833984	7013.288574
830.615234	6894.885254
829.398438	6792.953613
828.181641	6951.804688
826.962891	7036.697266
825.744141	7053.830566
824.527344	6722.127930
823.308594	6667.509766
822.089844	6996.476563
820.869141	6945.927246
819.650391	6911.799805
818.431641	7002.733398
817.210938	6956.309082
815.992188	6907.853027
814.771484	6916.781738
813.550781	6962.578125
812.330078	7059.557129
811.109375	7119.641602
809.888672	6915.606934
808.666016	7033.006836
807.445313	6800.415527
806.222656	7052.832520
805.001953	6981.934082
803.779297	7260.808594
802.556641	6813.633301
801.333984	6851.179199
800.109375	6986.828613
798.886719	6973.232422
797.664063	6939.208008
796.439453	7113.577148
795.216797	6959.026367
793.992188	7059.806152
792.767578	7117.668945
791.542969	7063.232910
790.318359	7165.974609
789.091797	7201.335938
787.867188	7248.924805
786.642578	7082.312012
785.416016	6919.841309
784.189453	7081.642578
782.962891	7084.364746
781.736328	7066.703125
780.509766	7130.563477
779.283203	7255.523438
778.056641	7268.394043
776.828125	7201.827637
775.601563	7176.012207
774.373047	7166.494141
773.144531	7118.303711
771.916016	7198.346191
770.687500	7335.330566
769.458984	7346.130859
768.230469	7346.756836
767.000000	7434.826172
765.771484	7053.190918
764.541016	7330.333984
763.310547	7188.689941
762.080078	7355.969727
760.849609	7405.349121
759.619141	7491.271973
758.388672	7130.370605
757.156250	7453.877441
755.925781	7204.775391
754.693359	7355.618652
753.462891	7335.941895
752.230469	7417.717773
750.998047	7442.663086
749.765625	7317.516113
748.531250	7472.246094
747.298828	7582.313965
746.064453	7365.997070
744.832031	7467.935547
743.597656	7490.813477
742.363281	7594.713379
741.128906	7502.108398
739.894531	7401.438477
738.660156	7485.047852
737.425781	7380.370605
736.189453	7633.954102
734.955078	7592.014648
733.718750	7572.344238
732.482422	7558.749023
731.246094	7725.142578
730.009766	7531.572754
728.773438	7598.852051
727.537109	7876.301270
726.298828	7541.362305
725.062500	7758.104004
723.824219	7790.946777
722.585938	7589.506836
721.347656	7644.579102
720.109375	7479.582031
718.871094	7564.929199
717.632813	7809.664551
716.392578	7693.152344
715.154297	7935.750000
713.914063	7962.452637
712.673828	7843.960449
711.433594	7858.573242
710.193359	7744.176758
708.953125	7907.932129
707.712891	7906.403320
706.472656	7834.366699
705.230469	7979.880859
703.988281	7762.869629
702.748047	7845.927246
701.505859	7928.952148
700.263672	7975.718750
699.021484	7925.882813
697.777344	7928.372070
696.535156	7950.973145
695.291016	7919.268066
694.048828	7992.125977
692.804688	7930.271484
691.560547	7842.312500
690.316406	7989.490234
689.072266	7829.227051
687.828125	7924.124023
686.582031	8119.396973
685.337891	8206.168945
684.091797	7959.664063
682.847656	8281.261719
681.601563	8375.976563
680.355469	8334.224609
679.109375	8290.481445
677.861328	8423.243164
676.615234	8209.061523
675.369141	8313.719727
674.121094	8282.039063
672.873047	8394.657227
671.625000	8216.709961
670.376953	8263.189453
669.128906	8245.560547
667.880859	8440.195313
666.632813	8240.352539
665.382813	8348.840820
664.134766	8243.151367
662.884766	8261.556641
661.634766	8189.932129
660.384766	8150.336914
659.134766	8294.727539
657.884766	8385.081055
656.632813	8369.456055
655.382813	8409.794922
654.130859	8408.157227
652.880859	8232.714844
651.628906	8217.129883
650.376953	8415.224609
649.125000	8459.505859
647.871094	8447.875977
646.619141	8400.325195
645.367188	8534.375977
644.113281	8273.358398
642.859375	8497.137695
641.607422	8521.405273
640.353516	8443.975586
639.097656	8350.627930
637.843750	8464.596680
636.589844	8323.456055
635.333984	8499.145508
634.080078	8413.825195
632.824219	8569.511719
631.568359	8478.237305
630.312500	8414.867188
629.056641	8508.759766
627.800781	8558.835938
626.544922	8493.496094
625.287109	8563.446289
624.029297	8671.156250
622.773438	8665.483398
621.515625	8594.207031
620.257813	8751.536133
619.000000	8566.998047
617.742188	8779.901367
616.482422	8597.414063
615.224609	8861.865234
613.964844	8713.189453
612.705078	8715.453125
611.445313	8705.806641
610.185547	9005.748047
608.925781	8924.618164
607.666016	9061.731445
606.406250	9129.373047
605.144531	9141.463867
603.884766	9121.829102
602.623047	9187.434570
601.361328	9163.833008
600.099609	9302.715820
598.837891	9334.567383
597.576172	9408.000000
596.312500	9396.252930
595.050781	9608.233398
593.787109	9469.763672
592.523438	9562.900391
591.259766	9566.958008
589.996094	9729.278320
588.732422	9628.471680
587.468750	9685.906250
586.205078	9828.333984
584.939453	9856.053711
583.673828	9786.919922
582.410156	9954.929688
581.144531	10174.237305
579.878906	10120.881836
578.611328	10033.974609
577.345703	10107.028320
576.080078	10180.052734
574.812500	10213.575195
573.546875	10168.154297
572.279297	10189.827148
571.011719	10162.179688
569.744141	10479.656250
568.476563	10217.329102
567.207031	10465.672852
565.939453	10311.850586
564.669922	10593.575195
563.402344	10530.414063
562.132813	10664.251953
560.863281	10626.701172
559.593750	10348.949219
558.322266	10553.611328
557.052734	10537.752930
555.783203	10598.644531
554.511719	10677.218750
553.240234	10759.695313
551.968750	10541.241211
550.697266	10440.847656
549.425781	10448.616211
548.154297	10515.345703
546.882813	10458.247070
545.609375	10595.676758
544.337891	10628.942383
543.064453	10518.827148
541.791016	10575.655273
540.517578	10675.650391
539.244141	10679.429688
537.970703	10724.416016
536.695313	10902.799805
535.421875	10667.213867
534.146484	10739.630859
532.871094	10698.291016
531.595703	10756.948242
530.320313	10811.663086
529.044922	10885.951172
527.769531	10768.200195
526.492188	10975.670898
525.216797	10863.822266
523.939453	11061.399414
522.662109	11000.478516
521.384766	11121.612305
520.107422	11076.357422
518.830078	11305.039063
517.552734	11118.918945
516.273438	11245.797852
514.996094	11188.819336
513.716797	11096.670898
512.437500	11184.384766
511.158203	11367.821289
509.878906	11373.382813
508.599609	11248.059570
507.318359	11419.653320
506.039063	11218.213867
504.757813	11479.549805
503.476563	11432.378906
502.197266	11125.671875
500.916016	11410.282227
499.632813	11532.866211
498.351563	11606.641602
497.070313	11432.739258
495.787109	11401.224609
494.503906	11309.297852
493.222656	11552.603516
491.939453	11524.978516
490.656250	11662.949219
489.371094	11569.091797
488.087891	11488.902344
486.804688	11447.681641
485.519531	11412.315430
484.234375	11398.370117
482.949219	11507.010742
481.666016	11362.712891
480.378906	11381.848633
479.093750	11299.857422
477.808594	11490.083008
476.521484	11478.079102
475.236328	11431.096680
473.949219	11646.440430
472.662109	11445.973633
471.375000	11266.952148
470.087891	11317.138672
468.798828	11423.608398
467.511719	11233.048828
466.222656	11250.218750
464.935547	11290.665039
463.646484	11443.609375
462.357422	11266.771484
461.068359	11371.180664
459.779297	11341.771484
458.488281	11205.763672
457.199219	11120.196289
455.908203	11338.866211
454.619141	11319.170898
453.328125	11274.303711
452.037109	11533.475586
450.746094	11234.958984
449.453125	11379.829102
448.162109	11364.011719
446.869141	11477.838867
445.578125	11301.442383
444.285156	11486.796875
442.992188	11530.914063
441.699219	11441.611328
440.406250	11592.032227
439.111328	11406.122070
437.818359	11427.031250
436.523438	11687.475586
435.230469	11571.187500
433.935547	11605.566406
432.640625	11701.710938
431.345703	11969.611328
430.048828	11878.444336
428.753906	11768.018555
427.457031	11941.215820
426.162109	11987.046875
424.865234	11913.302734
423.568359	12072.869141
422.271484	12236.225586
420.974609	12208.725586
419.677734	12136.918945
418.378906	12221.179688
417.082031	12143.620117
415.783203	12335.680664
414.484375	12260.052734
413.185547	12228.725586
411.886719	12185.864258
410.587891	12314.263672
409.287109	12402.213867
407.988281	12215.090820
406.687500	12495.318359
405.386719	12352.468750
404.085938	12376.906250
402.785156	12212.996094
401.484375	12352.734375
400.183594	12519.309570
398.880859	12138.435547
397.580078	12304.985352
396.277344	12216.125000
394.974609	12098.507813
393.671875	12130.626953
392.369141	12162.731445
391.066406	11941.603516
389.763672	12192.377930
388.458984	11932.980469
387.154297	11884.575195
385.851563	11870.690430
384.546875	11893.222656
383.242188	11844.852539
381.937500	11859.716797
380.630859	11577.709961
379.326172	11636.663086
378.019531	11705.163086
376.712891	11476.950195
375.408203	11547.367188
374.101563	11420.682617
372.792969	11307.438477
371.486328	11203.802734
370.179688	11465.433594
368.871094	11331.217773
367.564453	11160.737305
366.255859	11263.601563
364.947266	11116.129883
363.638672	10989.730469
362.330078	10983.702148
361.019531	11012.046875
359.710938	11124.380859
358.400391	11211.855469
357.089844	10915.716797
355.781250	10917.338867
354.470703	11035.321289
353.158203	11147.534180
351.847656	10794.440430
350.537109	10931.438477
349.224609	10776.756836
347.914063	10873.683594
346.601563	10827.674805
345.289063	10886.453125
343.976563	10840.459961
342.662109	10695.469727
341.349609	10655.242188
340.037109	10938.602539
338.722656	10654.760742
337.408203	10780.089844
336.093750	10646.666992
334.779297	10667.345703
333.464844	10556.816406
332.150391	10587.008789
330.833984	10573.473633
329.519531	10453.526367
328.203125	10303.227539
326.886719	10635.469727
325.570313	10454.807617
324.253906	10471.689453
322.937500	10338.591797
321.619141	10165.688477
320.302734	10397.047852
318.984375	10317.166016
317.666016	10368.199219
316.347656	10436.279297
315.029297	10337.475586
313.710938	10162.882813
312.392578	10338.994141
311.072266	10329.330078
309.753906	10315.880859
308.433594	10285.387695
307.113281	10298.464844
305.792969	10205.503906
304.472656	10292.418945
303.152344	10538.280273
301.830078	10547.508789
300.509766	10498.083984
299.187500	10524.338867
297.865234	10698.089844
296.542969	10361.270508
295.220703	10587.914063
293.898438	10487.498047
292.574219	10500.499023
291.251953	10532.385742
289.927734	10396.153320
288.603516	10596.119141
287.279297	10582.652344
285.955078	10691.889648
284.630859	10712.379883
283.306641	10763.050781
281.980469	10711.828125
280.656250	10839.810547
279.330078	10581.154297
278.003906	10624.267578
276.677734	10774.809570
275.351563	10633.169922
274.023438	10663.054688
272.697266	10854.941406
271.369141	10641.795898
270.042969	10714.971680
268.714844	10547.125000
267.386719	10384.994141
266.058594	10653.901367
264.728516	10866.250977
263.400391	10747.419922
262.070313	10613.588867
260.742188	10696.065430
259.412109	10646.901367
258.082031	10592.118164
256.751953	10697.098633
255.421875	10693.057617
254.089844	10689.017578
252.759766	10840.867188
251.427734	10866.842773
250.095703	10710.697266
248.763672	10595.909180
247.431641	10925.936523
246.099609	10585.996094
244.767578	10998.430664
243.433594	10823.658203
242.101563	10770.840820
240.767578	10978.636719
239.433594	10938.927734
238.099609	10946.085938
236.765625	10962.608398
235.431641	11147.715820
234.095703	11036.833984
232.761719	11124.481445
231.425781	11172.778320
230.089844	11123.724609
228.753906	11011.063477
227.417969	10937.739258
226.082031	11161.868164
224.744141	11432.662109
223.408203	11215.317383
222.070313	11310.259766
220.732422	11156.575195
219.394531	11146.842773
218.056641	11159.533203
216.718750	11330.994141
215.378906	11140.076172
214.041016	11333.876953
212.701172	11339.050781
211.361328	11105.316406
210.023438	11106.800781
208.681641	11298.583984
207.341797	11217.954102
206.001953	11254.846680
204.660156	11453.939453
203.320313	11528.051758
201.978516	11555.539063
200.636719	11409.715820
199.294922	11450.255859
197.953125	11325.001953
196.611328	11656.058594
195.267578	11352.069336
193.923828	11681.123047
192.582031	11777.399414
191.238281	11698.722656
189.894531	11692.632813
188.550781	11775.826172
187.205078	11795.756836
185.861328	11886.332031
184.515625	11763.096680
183.171875	12232.778320
181.826172	12107.664063
180.480469	12164.660156
179.134766	12243.921875
177.787109	11985.173828
176.441406	11964.179688
175.093750	12204.927734
173.748047	11998.307617
172.400391	12153.595703
171.052734	12184.526367
169.705078	12150.527344
168.355469	12238.931641
167.007813	12254.992188
165.660156	12384.118164
164.310547	12311.185547
162.960938	12223.458984
161.611328	12280.263672
160.261719	12212.951172
158.912109	12219.736328
157.560547	12348.708984
156.210938	12449.864258
154.859375	12364.063477
153.507813	12513.280273
152.156250	12357.205078
150.804688	12604.384766
149.453125	12664.702148
148.101563	12663.985352
146.748047	12532.033203
145.396484	12516.558594
144.042969	12842.901367
142.689453	12729.464844
141.335938	12928.196289
139.982422	13104.689453
138.626953	13087.265625
137.273438	13293.185547
135.917969	13238.821289
134.564453	13356.065430
133.208984	13515.688477
131.853516	13516.639648
130.496094	13438.301758
129.140625	13583.061523
127.785156	13744.349609
126.427734	13489.105469
125.070313	13663.244141
123.712891	13767.313477
122.355469	13707.433594
120.998047	13794.879883
119.640625	13757.108398
118.281250	13896.042969
116.923828	13801.220703
115.564453	13897.773438
114.205078	13951.981445
112.845703	14101.795898
111.486328	13966.555664
110.126953	13943.505859
108.765625	13861.650391
107.406250	14123.451172
106.044922	14313.495117
104.683594	14101.200195
103.322266	14270.969727
101.960938	14253.391602
100.599609	14180.748047
99.236328	14561.458984
97.875000	14369.510742
96.511719	14450.992188
95.148438	14506.760742
93.785156	14573.508789
92.421875	14753.905273
91.058594	14800.411133
89.693359	14769.923828
88.330078	14689.974609
86.964844	14798.751953
85.599609	14619.920898
84.234375	14880.660156
82.869141	15007.639648
81.503906	14689.755859
80.138672	14518.410156
78.771484	14542.917969
77.404297	14640.590820
76.037109	14584.585938
74.669922	14651.123047
73.302734	14715.803711
71.935547	14584.872070
70.568359	14251.136719
69.199219	14558.871094
67.832031	14329.402344
66.462891	14125.595703
65.093750	13863.437500
63.724609	13804.036133
62.353516	13520.144531
60.984375	13413.386719
59.613281	12967.299805
