#Wave		#Intensity
4002.113281	7209.087891
4001.415039	7230.564941
4000.716797	7272.349609
4000.017578	7181.722656
3999.319336	7216.346191
3998.620117	7086.407715
3997.920898	7117.458008
3997.221680	7280.812012
3996.522461	7007.906738
3995.823242	6920.983398
3995.124023	7180.795898
3994.424805	7129.609375
3993.724609	7171.341797
3993.025391	7238.068848
3992.325195	7165.465332
3991.625000	7278.600098
3990.924805	7216.725586
3990.224609	7144.160156
3989.524414	7132.302734
3988.824219	7256.077148
3988.124023	7126.442383
3987.422852	7303.697266
3986.721680	7256.146973
3986.021484	7265.681641
3985.320313	7022.007324
3984.619141	7231.255859
3983.917969	6944.883301
3983.216797	7246.754883
3982.514648	7174.311035
3981.813477	7344.202148
3981.112305	7179.131348
3980.410156	7120.981445
3979.708008	7119.837402
3979.005859	7243.333008
3978.303711	7146.034668
3977.601563	7169.806152
3976.899414	7243.401855
3976.197266	7281.385742
3975.494141	7173.467773
3974.791992	7360.873047
3974.088867	7224.520020
3973.385742	7290.934082
3972.682617	7108.407715
3971.979492	7007.714355
3971.276367	7273.201660
3970.573242	7112.090820
3969.869141	7214.005859
3969.166016	7035.190430
3968.461914	7311.159668
3967.758789	7349.057129
3967.054688	7227.128906
3966.350586	7261.476074
3965.646484	7207.055664
3964.941406	7163.301758
3964.237305	7172.798340
3963.533203	7125.515137
3962.828125	7103.082520
3962.124023	7222.554199
3961.418945	7139.816406
3960.713867	7174.132813
3960.008789	7141.068848
3959.303711	7246.276367
3958.598633	7383.351074
3957.892578	7226.229004
3957.187500	7157.743164
3956.481445	7238.079590
3955.776367	7173.155762
3955.070313	7363.256836
3954.364258	7323.121582
3953.658203	7360.892090
3952.952148	7218.108887
3952.245117	7195.712891
3951.539063	7205.174316
3950.832031	7097.867676
3950.125977	7209.935547
3949.418945	7010.695801
3948.711914	7320.791992
3948.004883	7372.657227
3947.297852	7177.021973
3946.590820	7129.915527
3945.883789	7273.678711
3945.175781	7099.355469
3944.468750	7324.340820
3943.760742	7178.326660
3943.052734	7269.007813
3942.344727	7338.470703
3941.636719	7097.188477
3940.928711	7194.899414
3940.220703	7246.691406
3939.511719	7344.346680
3938.803711	7117.332031
3938.094727	7193.807617
3937.386719	7499.548828
3936.677734	6993.987305
3935.968750	7140.973633
3935.259766	7171.559570
3934.550781	7121.054199
3933.840820	7289.097168
3933.131836	7354.885742
3932.421875	7364.275391
3931.712891	7243.310547
3931.002930	7238.625488
3930.292969	7269.160156
3929.583008	7320.812988
3928.873047	7330.199707
3928.163086	7279.740723
3927.452148	7324.327148
3926.742188	7214.060547
3926.031250	7219.939453
3925.321289	7215.262207
3924.610352	7101.548828
3923.899414	7223.496582
3923.188477	7296.177734
3922.477539	7358.288574
3921.765625	7005.597168
3921.054688	7296.179199
3920.342773	7168.504883
3919.631836	7058.438477
3918.919922	7229.435059
3918.208008	7070.221680
3917.496094	7353.536133
3916.784180	7310.222168
3916.072266	7161.604004
3915.359375	7388.605957
3914.647461	7141.757813
3913.934570	7291.494141
3913.222656	7311.373535
3912.509766	7233.029297
3911.796875	7305.519531
3911.083984	7416.560059
3910.371094	7176.955566
3909.658203	7393.145996
3908.944336	7342.890137
3908.231445	7383.764648
3907.517578	7242.425781
3906.803711	7381.394531
3906.089844	7324.166504
3905.375977	7186.407227
3904.662109	7209.765137
3903.948242	7380.158203
3903.234375	7364.971680
3902.519531	7230.793945
3901.805664	7268.125977
3901.090820	7259.961914
3900.375977	7178.337891
3899.661133	7324.087402
3898.946289	7228.490723
3898.231445	7213.344727
3897.516602	7261.130371
3896.801758	7291.423828
3896.085938	7377.625000
3895.370117	7362.464355
3894.655273	7207.558594
3893.939453	7209.895508
3893.223633	7229.693848
3892.507813	7315.834961
3891.791992	7293.711914
3891.075195	7358.869141
3890.359375	7273.919922
3889.642578	7206.446289
3888.925781	7072.698730
3888.209961	7123.894043
3887.493164	7157.632324
3886.776367	7390.150879
3886.059570	7511.010254
3885.341797	7161.160156
3884.625000	7379.622070
3883.907227	7134.465332
3883.190430	7467.858398
3882.472656	7316.838867
3881.754883	7214.639160
3881.037109	7432.916504
3880.319336	7281.975098
3879.601563	7305.180664
3878.883789	7317.934082
3878.165039	7403.781738
3877.447266	7308.625488
3876.728516	7317.892090
3876.009766	7236.697266
3875.291016	7259.886230
3874.572266	7387.410156
3873.853516	7281.899902
3873.134766	7298.116211
3872.415039	7446.430176
3871.696289	7493.897461
3870.976563	7558.725586
3870.256836	7178.768555
3869.537109	7358.272949
3868.817383	7388.354980
3868.097656	7335.074219
3867.377930	7337.370117
3866.658203	7426.463379
3865.937500	7341.958984
3865.217773	7271.364746
3864.497070	7311.841309
3863.776367	7619.472168
3863.055664	7385.816895
3862.334961	7284.042969
3861.614258	7244.726563
3860.893555	7378.795898
3860.171875	7332.542480
3859.451172	7490.818848
3858.729492	7489.617676
3858.007813	7356.736328
3857.287109	7414.456055
3856.565430	7260.844727
3855.842773	7360.124023
3855.121094	7438.593262
3854.399414	7302.363281
3853.676758	7276.958984
3852.955078	7424.630371
3852.232422	7357.684082
3851.509766	7207.712891
3850.787109	7538.687988
3850.064453	7423.327148
3849.341797	7352.964844
3848.619141	7303.373047
3847.895508	7478.533203
3847.172852	7466.962891
3846.449219	7465.765137
3845.725586	7353.981934
3845.001953	7418.452148
3844.278320	7621.090332
3843.554688	7357.352539
3842.831055	7511.584473
3842.107422	7220.323730
3841.382813	7488.460449
3840.659180	7297.402832
3839.934570	7389.419922
3839.209961	7301.963867
3838.485352	7349.096680
3837.760742	7313.420898
3837.036133	7419.172363
3836.310547	7486.955078
3835.585938	7430.585449
3834.860352	7587.979492
3834.135742	7500.588379
3833.410156	7420.118164
3832.684570	7336.227539
3831.958984	7259.254395
3831.233398	7423.438477
3830.507813	7436.024902
3829.781250	7245.431641
3829.055664	7433.640137
3828.329102	7311.958984
3827.602539	7434.698242
3826.875977	7471.361816
3826.149414	7322.205566
3825.422852	7314.150879
3824.696289	7337.056641
3823.969727	7287.730957
3823.242188	7300.316895
3822.515625	7388.537598
3821.788086	7352.977051
3821.060547	7551.145508
3820.333008	7436.531250
3819.605469	7222.311523
3818.877930	7238.330566
3818.150391	7347.083984
3817.421875	7297.826172
3816.694336	7430.571289
3815.965820	7508.342773
3815.237305	7438.486328
3814.508789	7396.108887
3813.780273	7439.532715
3813.051758	7393.737305
3812.323242	7299.930664
3811.593750	7528.561035
3810.865234	7482.772949
3810.135742	7529.576172
3809.407227	7326.104004
3808.677734	7263.231445
3807.948242	7621.914551
3807.218750	7480.203125
3806.488281	7417.335449
3805.758789	7440.124512
3805.029297	7517.704590
3804.298828	7341.856445
3803.568359	7515.294434
3802.837891	7527.782715
3802.107422	7506.039551
3801.376953	7326.882813
3800.646484	7247.010742
3799.916016	7526.377441
3799.185547	7658.571777
3798.454102	7349.545410
3797.722656	7334.689453
3796.992188	7131.798828
3796.260742	7465.652832
3795.529297	7573.825195
3794.796875	7637.539063
3794.065430	7588.480957
3793.333984	7341.301758
3792.601563	7541.645020
3791.870117	7407.249023
3791.137695	7505.082031
3790.405273	7473.153320
3789.672852	7495.849121
3788.940430	7504.886230
3788.208008	7633.351074
3787.474609	7499.068359
3786.742188	7392.118652
3786.008789	7353.416016
3785.276367	7546.614746
3784.542969	7773.847168
3783.809570	7564.649902
3783.076172	7696.368164
3782.342773	7415.683105
3781.608398	7503.086914
3780.875000	7566.614258
3780.140625	7442.774414
3779.407227	7509.696289
3778.672852	7539.139648
3777.938477	7653.689941
3777.204102	7492.469238
3776.469727	7508.286133
3775.735352	7581.949219
3775.000000	7560.318848
3774.265625	7412.823730
3773.530273	7704.155273
3772.794922	7553.283203
3772.059570	7436.462402
3771.324219	7547.462402
3770.588867	7780.798340
3769.853516	7534.847168
3769.118164	7625.388672
3768.381836	7546.021973
3767.646484	7650.120605
3766.910156	7716.824219
3766.173828	7627.292969
3765.437500	7524.208496
3764.701172	7417.761719
3763.964844	7443.727539
3763.227539	7486.653320
3762.491211	7651.721191
3761.753906	7552.106934
3761.017578	7608.562988
3760.280273	7424.197754
3759.542969	7663.771973
3758.805664	7720.182617
3758.068359	7600.296387
3757.331055	7738.044434
3756.592773	7726.637695
3755.855469	7664.409180
3755.117188	7646.242188
3754.378906	7766.957520
3753.640625	7420.269043
3752.902344	7564.684570
3752.164063	7593.942871
3751.425781	7636.731445
3750.686523	7682.891113
3749.948242	7725.651855
3749.208984	7514.639648
3748.470703	7665.666016
3747.731445	7644.143555
3746.992188	7781.573242
3746.252930	7773.563477
3745.512695	7724.987305
3744.773438	7811.634277
3744.034180	7654.918457
3743.293945	7704.378418
3742.553711	7740.308105
3741.813477	7833.652344
3741.073242	7720.939941
3740.333008	7783.864258
3739.592773	7647.560547
3738.852539	7805.000977
3738.111328	7925.261719
3737.371094	7802.499512
3736.629883	7747.261230
3735.888672	7708.909180
3735.147461	7684.061523
3734.406250	7625.495605
3733.665039	7641.133789
3732.923828	7916.375488
3732.181641	7736.443848
3731.440430	7681.276855
3730.698242	7707.005371
3729.956055	7651.860352
3729.214844	7866.239746
3728.472656	7972.764648
3727.729492	7627.975586
3726.987305	7805.215820
3726.245117	7750.098145
3725.501953	7698.364258
3724.759766	7717.324219
3724.016602	7817.039551
3723.273438	7768.683594
3722.530273	7962.549805
3721.787109	7833.462891
3721.043945	7798.578613
3720.299805	7891.475098
3719.556641	7732.204590
3718.812500	7962.894531
3718.068359	7981.783203
3717.325195	7768.811035
3716.581055	7744.048340
3715.835938	7843.581543
3715.091797	7849.041504
3714.347656	8008.970703
3713.602539	7839.811523
3712.858398	7986.262695
3712.113281	7766.813965
3711.368164	7701.807129
3710.623047	7764.325195
3709.877930	7645.661621
3709.132813	7812.151367
3708.387695	7908.158691
3707.641602	8265.685547
3706.896484	7999.499512
3706.150391	7830.610352
3705.404297	7839.410645
3704.658203	7854.909668
3703.912109	7920.662109
3703.166016	7929.442871
3702.419922	8015.258301
3701.672852	7772.851563
3700.926758	7868.708984
3700.179688	7924.361816
3699.432617	7775.810547
3698.685547	7985.411621
3697.938477	7940.630859
3697.191406	7775.418945
3696.444336	8011.680176
3695.696289	7933.469727
3694.949219	8005.769043
3694.201172	8014.516602
3693.454102	7886.197754
3692.706055	7908.331543
3691.958008	8107.581543
3691.208984	7985.991699
3690.460938	8058.211426
3689.712891	7823.096191
3688.963867	7768.405762
3688.215820	7857.321289
3687.466797	7695.802734
3686.717773	7988.332031
3685.968750	8093.857910
3685.219727	7872.309570
3684.470703	8044.551758
3683.720703	7909.820313
3682.971680	8028.632324
3682.221680	8244.121094
3681.471680	8006.052734
3680.722656	7941.425293
3679.972656	8090.155762
3679.221680	8332.159180
3678.471680	8077.566895
3677.721680	7929.673340
3676.970703	7988.365723
3676.220703	8223.567383
3675.469727	8228.910156
3674.718750	8021.152832
3673.967773	8249.578125
3673.216797	8171.698242
3672.465820	8067.219238
3671.714844	8089.219238
3670.962891	8111.212402
3670.211914	7990.160156
3669.459961	8095.310059
3668.708008	8120.616211
3667.956055	8106.015625
3667.204102	8018.284180
3666.452148	8193.161133
3665.699219	8324.778320
3664.947266	8230.408203
3664.194336	8308.822266
3663.442383	8174.625000
3662.689453	8213.168945
3661.936523	8255.020508
3661.183594	8280.258789
3660.430664	8278.932617
3659.676758	8251.053711
3658.923828	8478.707031
3658.169922	8454.123047
3657.416992	8472.672852
3656.663086	8428.196289
3655.909180	8413.580078
3655.155273	8445.390625
3654.401367	8331.317383
3653.646484	8465.887695
3652.892578	8524.187500
3652.137695	8439.979492
3651.383789	8415.435547
3650.628906	8606.219727
3649.874023	8498.853516
3649.119141	8411.391602
3648.364258	8691.482422
3647.609375	8329.244141
3646.853516	8374.249023
3646.098633	8498.666992
3645.342773	8401.346680
3644.586914	8628.279297
3643.831055	8408.579102
3643.075195	8509.758789
3642.319336	8657.201172
3641.563477	8685.571289
3640.806641	8717.237305
3640.050781	8854.659180
3639.293945	8896.201172
3638.537109	8706.439453
3637.780273	8609.239258
3637.023438	8545.101563
3636.266602	8738.583984
3635.509766	8555.572266
3634.752930	8689.563477
3633.995117	8981.958008
3633.237305	8815.497070
3632.480469	8850.383789
3631.722656	8700.493164
3630.964844	8873.938477
3630.207031	8994.555664
3629.448242	8953.541016
3628.690430	9041.132813
3627.931641	8891.331055
3627.173828	8959.126953
3626.415039	8947.804688
3625.656250	9058.407227
3624.897461	9126.143555
3624.138672	9151.034180
3623.379883	9116.631836
3622.620117	8999.915039
3621.861328	8975.424805
3621.101563	9224.178711
3620.341797	9245.742188
3619.582031	9053.385742
3618.822266	9084.839844
3618.062500	9310.386719
3617.302734	9039.166992
3616.542969	9290.959961
3615.782227	9194.110352
3615.021484	9212.364258
3614.261719	9201.026367
3613.500977	9275.147461
3612.740234	9214.509766
3611.979492	9305.032227
3611.217773	9346.248047
3610.457031	9288.913086
3609.695313	9431.924805
3608.934570	9417.279297
3608.172852	9402.638672
3607.411133	9171.356445
3606.649414	9419.318359
3605.887695	9270.143555
3605.125977	9504.885742
3604.363281	9277.014648
3603.601563	9229.609375
3602.838867	9388.820313
3602.076172	9623.392578
3601.314453	9320.246094
3600.551758	9331.864258
3599.788086	9382.804688
3599.025391	9479.604492
3598.262695	9383.075195
3597.499023	9411.053711
3596.736328	9501.250000
3595.972656	9470.255859
3595.208984	9445.820313
3594.445313	9663.637695
3593.681641	9711.185547
3592.916992	9510.004883
3592.153320	9393.960938
3591.389648	9562.573242
3590.625000	9495.622070
3589.860352	9399.257813
3589.095703	9456.610352
3588.331055	9553.177734
3587.566406	9486.269531
3586.801758	9425.919922
3586.036133	9460.355469
3585.271484	9498.047852
3584.505859	9362.587891
3583.741211	9628.920898
3582.975586	9274.679688
3582.209961	9485.432617
3581.443359	9585.118164
3580.677734	9528.091797
3579.912109	9304.637695
3579.145508	9449.987305
3578.379883	9435.422852
3577.613281	9600.277344
3576.846680	9507.416016
3576.080078	9509.153320
3575.313477	9520.671875
3574.545898	9548.486328
3573.779297	9605.626953
3573.012695	9519.356445
3572.245117	9364.685547
3571.477539	9682.458984
3570.709961	9456.149414
3569.942383	9402.524414
3569.174805	9674.549805
3568.407227	9503.698242
3567.638672	9450.090820
3566.871094	9572.257813
3566.102539	9225.774414
3565.333984	9354.445313
3564.565430	9424.517578
3563.796875	9432.765625
3563.028320	9545.079102
3562.259766	9540.298828
3561.490234	9418.479492
3560.721680	9384.463867
3559.952148	9405.710938
3559.182617	9283.970703
3558.413086	9490.421875
3557.643555	9332.972656
3556.874023	9497.125000
3556.104492	9291.012695
3555.333984	9198.609375
3554.564453	9427.632813
3553.793945	9396.909180
3553.023438	9499.255859
3552.252930	9445.816406
3551.482422	9454.036133
3550.711914	9442.790039
3549.941406	9418.574219
3549.169922	9212.768555
3548.399414	9392.860352
3547.627930	9355.696289
3546.856445	9402.815430
3546.084961	9355.939453
3545.313477	9312.317383
3544.541992	9424.214844
3543.770508	9238.073242
3542.998047	9476.251953
3542.226563	9403.495117
3541.454102	9350.186523
3540.681641	9507.305664
3539.909180	9246.857422
3539.136719	9433.066406
3538.364258	9567.447266
3537.591797	9255.353516
3536.818359	9231.229492
3536.045898	9462.596680
3535.272461	9412.579102
3534.499023	9168.600586
3533.725586	9309.358398
3532.952148	9362.808594
3532.178711	9215.896484
3531.404297	9182.111328
3530.630859	9419.685547
3529.856445	9250.225586
3529.082031	9248.743164
3528.308594	9172.999023
3527.534180	9261.921875
3526.759766	9515.430664
3525.984375	9171.818359
3525.209961	9163.895508
3524.434570	9159.201172
3523.660156	9102.896484
3522.884766	9198.193359
3522.109375	9187.045898
3521.333984	9201.694336
3520.558594	9242.126953
3519.783203	9221.307617
3519.006836	9197.272461
3518.231445	9031.472656
3517.455078	9174.996094
3516.678711	9035.021484
3515.902344	9265.451172
3515.125977	8912.985352
3514.349609	9153.019531
3513.573242	9006.699219
3512.796875	9066.407227
3512.019531	9196.889648
3511.242188	9095.675781
3510.465820	9242.197266
3509.688477	9105.626953
3508.911133	9084.873047
3508.132813	9134.863281
3507.355469	9175.192383
3506.578125	9170.507813
3505.799805	9194.749023
3505.021484	9055.103516
3504.244141	9159.674805
3503.465820	9129.296875
3502.687500	9079.657227
3501.908203	9213.075195
3501.129883	9320.763672
3500.351563	9187.651367
3499.572266	9288.889648
3498.792969	9220.008789
3498.014648	9257.035156
3497.235352	9056.645508
3496.455078	9145.008789
3495.675781	9297.486328
3494.896484	9033.053711
3494.116211	9118.170898
3493.336914	9193.644531
3492.556641	9083.198242
3491.776367	9020.855469
3490.996094	9160.388672
3490.215820	9030.779297
3489.435547	9151.046875
3488.655273	9024.682617
3487.874023	9084.075195
3487.092773	9153.051758
3486.312500	9164.388672
3485.531250	9124.514648
3484.750000	9148.652344
3483.968750	9095.996094
3483.186523	9136.124023
3482.405273	9192.231445
3481.623047	9014.874023
3480.841797	9218.062500
3480.059570	9258.144531
3479.277344	8956.203125
3478.495117	9124.147461
3477.712891	9323.992188
3476.930664	9146.782227
3476.147461	9209.203125
3475.365234	8990.548828
3474.582031	9104.066406
3473.798828	9319.715820
3473.015625	9222.455078
3472.232422	9122.032227
3471.449219	9171.630859
3470.666016	9109.537109
3469.881836	9028.321289
3469.098633	9173.601563
3468.314453	9121.104492
3467.530273	9177.039063
3466.746094	9121.369141
3465.961914	9040.215820
3465.177734	9172.627930
3464.392578	9298.623047
3463.608398	9077.290039
3462.823242	9177.775391
3462.039063	9316.449219
3461.253906	8830.897461
3460.468750	9084.208984
3459.683594	9324.705078
3458.897461	9221.352539
3458.112305	9156.223633
3457.326172	9275.673828
3456.541016	9150.107422
3455.754883	9155.002930
3454.968750	9118.550781
3454.182617	9136.168945
3453.396484	9169.679688
3452.610352	9060.124023
3451.823242	9058.671875
3451.037109	9130.313477
3450.250000	9068.478516
3449.462891	9121.033203
3448.675781	8894.043945
3447.888672	9257.851563
3447.101563	9075.368164
3446.314453	9140.586914
3445.526367	9158.167969
3444.739258	9074.178711
3443.951172	8904.535156
3443.163086	9325.101563
3442.375000	9184.022461
3441.586914	9204.753906
3440.798828	9035.196289
3440.009766	9185.949219
3439.221680	9143.261719
3438.432617	9281.269531
3437.644531	9289.290039
3436.855469	9325.826172
3436.066406	9257.797852
3435.277344	8964.875977
3434.487305	9042.621094
3433.698242	9088.673828
3432.908203	9004.893555
3432.119141	8955.963867
3431.329102	8967.189453
3430.539063	9146.143555
3429.749023	9151.005859
3428.958984	9029.317383
3428.168945	8913.993164
3427.377930	9039.073242
3426.587891	8939.595703
3425.796875	9102.572266
3425.005859	9050.533203
3424.214844	9004.833008
3423.423828	8974.948242
3422.632813	9039.863281
3421.840820	9063.687500
3421.049805	9179.105469
3420.257813	8864.975586
3419.466797	9116.166992
3418.674805	9108.391602
3417.882813	8961.725586
3417.090820	9174.907227
3416.297852	9223.926758
3415.505859	9149.879883
3414.713867	8962.290039
3413.920898	9162.717773
3413.127930	9167.555664
3412.334961	9166.085938
3411.541992	9038.512695
3410.749023	9137.930664
3409.956055	8982.038086
3409.162109	9125.548828
3408.369141	8972.857422
3407.575195	9128.922852
3406.781250	9020.374023
3405.987305	9081.909180
3405.193359	8998.590820
3404.399414	8912.150391
3403.605469	9017.739258
3402.810547	8814.881836
3402.016602	9191.054688
3401.221680	8947.335938
3400.426758	9059.140625
3399.631836	8774.635742
3398.836914	8965.044922
3398.041992	8847.279297
3397.247070	8993.606445
3396.451172	9014.165039
3395.655273	9059.857422
3394.860352	8939.008789
3394.064453	8855.896484
3393.268555	9118.321289
3392.472656	8868.759766
3391.675781	8889.318359
3390.879883	8840.800781
3390.083008	9165.837891
3389.287109	8916.427734
3388.490234	8811.445313
3387.693359	8970.043945
3386.896484	8981.153320
3386.099609	9255.722656
3385.301758	8959.458008
3384.504883	9114.794922
3383.707031	8972.260742
3382.909180	8945.746094
3382.112305	9063.402344
3381.314453	8830.073242
3380.515625	9094.958008
3379.717773	8889.890625
3378.919922	9057.590820
3378.121094	8943.406250
3377.323242	8932.580078
3376.524414	8959.321289
3375.725586	9036.133789
3374.926758	9028.425781
3374.127930	8839.242188
3373.328125	8847.209961
3372.529297	8980.291992
3371.729492	8931.941406
3370.930664	9033.697266
3370.130859	8997.858398
3369.331055	8983.912109
3368.531250	9201.250977
3367.731445	8799.785156
3366.930664	8954.595703
3366.130859	8881.309570
3365.330078	9142.251953
3364.529297	8937.796875
3363.729492	8980.077148
3362.928711	8738.250000
3362.126953	8855.461914
3361.326172	8788.502930
3360.525391	9130.339844
3359.723633	8885.521484
3358.922852	8968.321289
3358.121094	9082.283203
3357.319336	8871.892578
3356.517578	9029.483398
3355.715820	8922.042969
3354.913086	8951.782227
3354.111328	8903.599609
3353.308594	8752.608398
3352.506836	8888.283203
3351.704102	8967.845703
3350.901367	9016.237305
3350.098633	8874.665039
3349.294922	8814.086914
3348.492188	8912.287109
3347.688477	9054.029297
3346.885742	8865.862305
3346.082031	8917.333984
3345.278320	9074.560547
3344.474609	9160.197266
3343.670898	9046.771484
3342.867188	8861.864258
3342.062500	9065.631836
3341.258789	9002.009766
3340.454102	8922.867188
3339.649414	9023.981445
3338.844727	9112.635742
3338.040039	8996.235352
3337.235352	9022.746094
3336.429688	8816.339844
3335.625000	8970.172852
3334.819336	9086.703125
3334.014648	8982.815430
3333.208984	9083.788086
3332.403320	8964.418945
3331.596680	9065.362305
3330.791016	8933.625977
3329.985352	8950.801758
3329.178711	9008.284180
3328.373047	8997.538086
3327.566406	9002.294922
3326.759766	8873.772461
3325.953125	8894.041992
3325.145508	9001.062500
3324.338867	8946.953125
3323.532227	9038.442383
3322.724609	8848.076172
3321.916992	8985.999023
3321.109375	8795.702148
3320.301758	9057.408203
3319.494141	9111.665039
3318.686523	8974.044922
3317.878906	8920.007813
3317.070313	9033.036133
3316.261719	8861.471680
3315.454102	9178.579102
3314.645508	8775.144531
3313.836914	9153.994141
3313.027344	8923.789063
3312.218750	8965.625000
3311.410156	9029.078125
3310.600586	9145.031250
3309.791016	8856.283203
3308.981445	9027.821289
3308.171875	8742.272461
3307.362305	9086.675781
3306.552734	8903.082031
3305.743164	8907.826172
3304.932617	8850.848633
3304.122070	9056.162109
3303.312500	8980.666992
3302.501953	8979.225586
3301.691406	8839.000977
3300.879883	8862.251953
3300.069336	8863.913086
3299.258789	8905.647461
3298.447266	8956.614258
3297.635742	9047.625977
3296.824219	8861.306641
3296.012695	8890.691406
3295.201172	9043.271484
3294.389648	8767.732422
3293.578125	8972.628906
3292.765625	8900.379883
3291.953125	9000.531250
3291.141602	9011.397461
3290.329102	9003.796875
3289.516602	8956.202148
3288.703125	8936.308594
3287.890625	8904.117188
3287.078125	8785.831055
3286.264648	8769.047852
3285.451172	9047.393555
3284.637695	8876.887695
3283.824219	8847.804688
3283.010742	8732.693359
3282.197266	8860.326172
3281.383789	8671.528320
3280.569336	8845.197266
3279.754883	9006.528320
3278.940430	8977.450195
3278.126953	8770.334961
3277.311523	8719.819336
3276.497070	9166.462891
3275.682617	8839.752930
3274.867188	8783.113281
3274.052734	8916.666016
3273.237305	8826.296875
3272.421875	8809.548828
3271.606445	8636.448242
3270.791016	9033.556641
3269.975586	8863.540039
3269.159180	8938.726563
3268.343750	8682.991211
3267.527344	8935.857422
3266.710938	8845.599609
3265.894531	8730.872070
3265.078125	8949.927734
3264.261719	8985.227539
3263.445313	8842.983398
3262.627930	8740.570313
3261.811523	8931.943359
3260.994141	9003.936523
3260.176758	8978.019531
3259.359375	9025.513672
3258.541992	8877.282227
3257.724609	8933.949219
3256.906250	8770.495117
3256.088867	8817.991211
3255.270508	9048.833008
3254.452148	8815.161133
3253.633789	8865.681641
3252.815430	9020.039063
3251.997070	9082.726563
3251.177734	8888.894531
3250.359375	8866.096680
3249.540039	9050.879883
3248.720703	8933.448242
3247.902344	8892.343750
3247.083008	8723.105469
3246.262695	8926.095703
3245.443359	8814.858398
3244.624023	8782.947266
3243.803711	8735.799805
3242.983398	8895.976563
3242.163086	8949.415039
3241.342773	8856.547852
3240.522461	8727.144531
3239.702148	8817.144531
3238.881836	8882.745117
3238.060547	8838.679688
3237.240234	8809.853516
3236.418945	8826.707031
3235.597656	8861.821289
3234.776367	8878.661133
3233.955078	9026.356445
3233.132813	9177.046875
3232.311523	8959.569336
3231.489258	8973.339844
3230.666992	9105.717773
3229.845703	8952.213867
3229.022461	8950.776367
3228.200195	9064.854492
3227.377930	8823.288086
3226.555664	9010.282227
3225.732422	8887.299805
3224.909180	8855.494141
3224.086914	9066.691406
3223.263672	9016.644531
3222.440430	8866.411133
3221.616211	8670.686523
3220.792969	9066.940430
3219.968750	9016.924805
3219.145508	9152.029297
3218.321289	9074.708984
3217.497070	9030.782227
3216.672852	9138.521484
3215.848633	9070.337891
3215.024414	8999.144531
3214.199219	9012.856445
3213.375000	8823.482422
3212.549805	9085.727539
3211.724609	9241.833984
3210.899414	9176.727539
3210.074219	8990.476563
3209.249023	8958.746094
3208.422852	9084.490234
3207.597656	9219.277344
3206.771484	8899.941406
3205.945313	8962.072266
3205.119141	9130.101563
3204.292969	9243.613281
3203.466797	8963.805664
3202.640625	9037.985352
3201.813477	9317.791016
3200.987305	9198.367188
3200.160156	9281.541992
3199.333008	9183.321289
3198.505859	9112.332031
3197.678711	9047.410156
3196.850586	9206.088867
3196.023438	9005.232422
3195.195313	9151.785156
3194.368164	9310.370117
3193.540039	9269.622070
3192.711914	9271.152344
3191.883789	9013.094727
3191.055664	9331.551758
3190.226563	9010.199219
3189.398438	9286.315430
3188.569336	9239.576172
3187.740234	9123.483398
3186.911133	9134.080078
3186.082031	9138.642578
3185.252930	9125.116211
3184.423828	9162.833008
3183.593750	9260.810547
3182.763672	9129.758789
3181.934570	8989.710938
3181.104492	9132.849609
3180.274414	9143.428711
3179.444336	8949.244141
3178.613281	9333.176758
3177.783203	9133.002930
3176.952148	9122.505859
3176.122070	9090.948242
3175.291016	9239.925781
3174.459961	9274.541016
3173.628906	8972.270508
3172.796875	9506.131836
3171.965820	9486.563477
3171.133789	9292.632813
3170.302734	9149.863281
3169.470703	9211.506836
3168.638672	9378.300781
3167.806641	9289.666016
3166.974609	9156.000000
3166.141602	9196.577148
3165.309570	9171.076172
3164.476563	9202.629883
3163.644531	9198.148438
3162.811523	9118.630859
3161.978516	9186.189453
3161.144531	9130.703125
3160.311523	9414.244141
3159.478516	9217.756836
3158.644531	9102.309570
3157.810547	9220.791992
3156.977539	9297.262695
3156.143555	9103.917969
3155.308594	9282.285156
3154.474609	9211.870117
3153.640625	9312.260742
3152.805664	9346.712891
3151.970703	9324.244141
3151.136719	9080.168945
3150.301758	9108.652344
3149.466797	9077.250000
3148.630859	9309.271484
3147.795898	9059.368164
3146.959961	9243.439453
3146.125000	9062.440430
3145.289063	9087.906250
3144.453125	9065.509766
3143.617188	9243.479492
3142.781250	9203.124023
3141.945313	9162.781250
3141.108398	9256.957031
3140.271484	9103.054688
3139.435547	9164.339844
3138.598633	9309.257813
3137.761719	9083.729492
3136.924805	9342.104492
3136.086914	9197.268555
3135.250000	9246.545898
3134.412109	9313.718750
3133.575195	9228.650391
3132.737305	9021.256836
3131.899414	9297.292969
3131.061523	9066.088867
3130.222656	9312.201172
3129.384766	8994.581055
3128.545898	9467.243164
3127.708008	9119.886719
3126.869141	9195.922852
3126.030273	9492.481445
3125.191406	9213.825195
3124.352539	9128.919922
3123.512695	9124.473633
3122.673828	9367.240234
3121.833984	9416.359375
3120.994141	9242.151367
3120.154297	9332.952148
3119.314453	9260.014648
3118.474609	9234.717773
3117.634766	9108.258789
3116.793945	9136.544922
3115.954102	9176.720703
3115.113281	9222.831055
3114.272461	9313.532227
3113.431641	9213.919922
3112.590820	9447.282227
3111.750000	9303.095703
3110.908203	9215.418945
3110.067383	9225.822266
3109.225586	9176.805664
3108.383789	9095.131836
3107.541992	9108.518555
3106.700195	9139.716797
3105.858398	9444.042969
3105.015625	9317.850586
3104.173828	9200.602539
3103.331055	9234.732422
3102.488281	9132.370117
3101.645508	9175.398438
3100.802734	9245.107422
3099.959961	9323.690430
3099.116211	9159.112305
3098.273438	9252.505859
3097.429688	9218.413086
3096.585938	9291.021484
3095.743164	9067.290039
3094.898438	9033.257813
3094.054688	8999.226563
3093.210938	8965.194336
3092.366211	8931.162109
3091.522461	9350.157227
3090.677734	9387.136719
3089.833008	9412.265625
3088.988281	9100.019531
3088.143555	9021.625000
3087.297852	9301.221680
3086.453125	9261.272461
3085.607422	9280.485352
3084.762695	9148.884766
3083.916992	9274.542969
3083.071289	9302.611328
3082.225586	9570.070313
3081.378906	9246.427734
3080.533203	9085.391602
3079.686523	9172.553711
3078.839844	9271.501953
3077.994141	9270.010742
3077.147461	9244.897461
3076.299805	9329.024414
3075.453125	9179.936523
3074.606445	9193.215820
3073.758789	9295.014648
3072.912109	9325.972656
3072.064453	9424.767578
3071.216797	9269.883789
3070.369141	9153.384766
3069.520508	9202.035156
3068.672852	9392.171875
3067.824219	9255.076172
3066.976563	9017.827148
3066.127930	9263.884766
3065.279297	9162.228516
3064.430664	9269.740234
3063.582031	9333.041016
3062.732422	9378.653320
3061.883789	9397.752930
3061.034180	9360.916992
3060.184570	9165.158203
3059.334961	9472.670898
3058.485352	9253.418945
3057.635742	9287.231445
3056.786133	9247.500000
3055.935547	9319.533203
3055.084961	9335.675781
3054.235352	9322.413086
3053.384766	9173.941406
3052.534180	9266.511719
3051.683594	9411.944336
3050.832031	9195.955078
3049.981445	9388.352539
3049.129883	9190.058594
3048.278320	9323.662109
3047.426758	9301.608398
3046.575195	9294.240234
3045.723633	9325.031250
3044.872070	9320.595703
3044.019531	9266.279297
3043.167969	9059.425781
3042.315430	9412.893555
3041.462891	9294.066406
3040.610352	9175.277344
3039.757813	9258.824219
3038.905273	9271.990234
3038.051758	9252.913086
3037.199219	9184.022461
3036.345703	9279.233398
3035.492188	9210.361328
3034.638672	9249.884766
3033.785156	9245.467773
3032.931641	9317.181641
3032.077148	9511.832031
3031.223633	9437.122070
3030.369141	9157.568359
3029.514648	9396.042969
3028.660156	9259.946289
3027.805664	9398.868164
3026.951172	9286.212891
3026.095703	9267.171875
3025.241211	9283.222656
3024.385742	9351.888672
3023.530273	9318.231445
3022.674805	9319.653320
3021.819336	9157.444336
3020.963867	9322.495117
3020.107422	9209.995117
3019.251953	9217.274414
3018.395508	9256.670898
3017.539063	9398.242188
3016.682617	9233.255859
3015.826172	9176.314453
3014.969727	9487.084961
3014.113281	9255.055664
3013.255859	9379.007813
3012.398438	9074.151367
3011.541992	9241.836914
3010.684570	9316.160156
3009.827148	9212.621094
3008.968750	9249.032227
3008.111328	9113.477539
3007.252930	9202.342773
3006.395508	9361.104492
3005.537109	9280.944336
3004.678711	9407.602539
3003.820313	9143.998047
3002.961914	9325.958984
3002.102539	9420.524414
3001.244141	9288.026367
3000.384766	9213.774414
2999.525391	9238.478516
2998.666016	9274.810547
2997.806641	9351.855469
2996.947266	9106.046875
2996.087891	9215.080078
2995.227539	9431.651367
2994.367188	9258.622070
2993.507813	9085.648438
2992.647461	9180.083984
2991.787109	9294.826172
2990.925781	9046.397461
2990.065430	9010.084961
2989.205078	9226.444336
2988.343750	9288.837891
2987.482422	9380.244141
2986.621094	9172.638672
2985.759766	9298.861328
2984.898438	9207.407227
2984.037109	9284.259766
2983.174805	9195.737305
2982.312500	9345.077148
2981.451172	9511.766602
2980.588867	9092.711914
2979.726563	9328.964844
2978.864258	9382.533203
2978.000977	9125.992188
2977.138672	9309.967773
2976.275391	9409.867188
2975.412109	9278.000977
2974.548828	9348.911133
2973.685547	9263.427734
2972.822266	9166.391602
2971.958984	9260.443359
2971.094727	9507.862305
2970.231445	9413.726563
2969.367188	9325.408203
2968.502930	9335.476563
2967.638672	9426.531250
2966.774414	9422.120117
2965.909180	9420.601563
2965.044922	9361.261719
2964.179688	9414.674805
2963.314453	9242.639648
2962.450195	9376.963867
2961.583984	9482.353516
2960.718750	9376.830078
2959.853516	9444.637695
2958.987305	9616.383789
2958.122070	9340.536133
2957.255859	9399.655273
2956.389648	9424.117188
2955.523438	9385.081055
2954.657227	9305.660156
2953.791016	9488.801758
2952.923828	9530.540039
2952.056641	9396.335938
2951.190430	9371.751953
2950.323242	9237.616211
2949.456055	9478.272461
2948.587891	9641.031250
2947.720703	9452.163086
2946.853516	9551.484375
2945.985352	9411.665039
2945.117188	9381.343750
2944.249023	9569.904297
2943.380859	9530.928711
2942.512695	9284.679688
2941.644531	9441.500977
2940.775391	9546.465820
2939.907227	9775.132813
2939.038086	9534.756836
2938.168945	9461.302734
2937.299805	9431.015625
2936.430664	9556.026367
2935.560547	9577.488281
2934.691406	9449.452148
2933.821289	9496.791992
2932.951172	9541.243164
2932.081055	9712.108398
2931.210938	9572.641602
2930.340820	9645.782227
2929.470703	9540.833984
2928.599609	9415.818359
2927.729492	9376.975586
2926.858398	9567.795898
2925.987305	9462.926758
2925.116211	9587.666992
2924.244141	9649.244141
2923.373047	9535.805664
2922.501953	9471.165039
2921.629883	9661.783203
2920.757813	9640.153320
2919.885742	9721.739258
2919.013672	9551.049805
2918.141602	9747.262695
2917.269531	9800.135742
2916.396484	9638.111328
2915.523438	9479.002930
2914.651367	9798.258789
2913.778320	9547.537109
2912.904297	9626.166992
2912.031250	9624.614258
2911.158203	9654.546875
2910.284180	9744.568359
2909.411133	9631.402344
2908.537109	9506.829102
2907.663086	9553.923828
2906.789063	9512.341797
2905.915039	9725.272461
2905.040039	9454.951172
2904.166016	9664.962891
2903.291016	9654.829102
2902.416016	9724.712891
2901.541016	9837.433594
2900.666016	9681.581055
2899.791016	9554.340820
2898.915039	9667.033203
2898.040039	9688.316406
2897.164063	9789.530273
2896.288086	9759.406250
2895.412109	9603.714844
2894.536133	9644.968750
2893.660156	9714.739258
2892.783203	9570.540039
2891.907227	9568.996094
2891.030273	9473.345703
2890.153320	9560.205078
2889.276367	9755.366211
2888.399414	9739.540039
2887.522461	9643.922852
2886.644531	9622.420898
2885.767578	9398.650391
2884.889648	9570.890625
2884.011719	9384.224609
2883.133789	9633.295898
2882.255859	9526.398438
2881.377930	9482.161133
2880.499023	9597.323242
2879.621094	9760.826172
2878.742188	9591.380859
2877.863281	9558.539063
2876.984375	9727.657227
2876.105469	9620.863281
2875.226563	9715.986328
2874.346680	9464.237305
2873.466797	9556.511719
2872.587891	9623.178711
2871.708008	9848.952148
2870.828125	9526.314453
2869.948242	9635.562500
2869.067383	9614.125000
2868.187500	9450.707031
2867.306641	9508.806641
2866.425781	9572.564453
2865.544922	9548.312500
2864.664063	9458.794922
2863.783203	9712.639648
2862.902344	9580.569336
2862.020508	9530.800781
2861.139648	9469.704102
2860.257813	9675.175781
2859.375977	9563.041992
2858.494141	9700.398438
2857.612305	9554.285156
2856.729492	9609.417969
2855.847656	9568.199219
2854.964844	9671.471680
2854.082031	9587.768555
2853.199219	9566.396484
2852.316406	9751.731445
2851.433594	9619.928711
2850.549805	9802.363281
2849.666992	9537.577148
2848.783203	9674.691406
2847.899414	9511.863281
2847.015625	9598.018555
2846.131836	9754.853516
2845.248047	9572.295898
2844.363281	9565.094727
2843.479492	9605.954102
2842.594727	9451.771484
2841.709961	9464.375000
2840.825195	9527.834961
2839.940430	9687.327148
2839.055664	9533.230469
2838.169922	9509.097656
2837.285156	9609.215820
2836.399414	9618.957031
2835.513672	9654.099609
2834.627930	9717.455078
2833.742188	9385.719727
2832.856445	9640.957031
2831.969727	9865.081055
2831.083984	9826.819336
2830.197266	9430.417969
2829.310547	9677.022461
2828.423828	9604.979492
2827.537109	9600.609375
2826.649414	9742.790039
2825.762695	9659.499023
2824.875000	9553.695313
2823.987305	9819.758789
2823.099609	9561.874023
2822.211914	9658.888672
2821.324219	9750.241211
2820.436523	9706.439453
2819.547852	9603.543945
2818.659180	9599.177734
2817.771484	9625.763672
2816.882813	9638.274414
2815.993164	9830.801758
2815.104492	9486.104492
2814.215820	9523.937500
2813.326172	9800.732422
2812.437500	9844.125000
2811.547852	9839.722656
2810.658203	9714.488281
2809.768555	9547.149414
2808.877930	9753.486328
2807.988281	9909.198242
2807.097656	9545.329102
2806.207031	9776.835938
2805.317383	9615.235352
2804.426758	9801.744141
2803.535156	9763.675781
2802.644531	9512.363281
2801.753906	9743.685547
2800.862305	9862.730469
2799.970703	9872.354492
2799.079102	9764.199219
2798.187500	9944.863281
2797.295898	9805.894531
2796.404297	10017.324219
2795.511719	9791.514648
2794.619141	9820.752930
2793.727539	9920.017578
2792.834961	9702.735352
2791.942383	9925.211914
2791.048828	9836.803711
2790.156250	9963.998047
2789.262695	9959.586914
2788.370117	9846.026367
2787.476563	9869.619141
2786.583008	10007.916016
2785.689453	9855.238281
2784.794922	9895.598633
2783.901367	9980.689453
2783.006836	9861.641602
2782.113281	9969.075195
2781.218750	9878.018555
2780.324219	9993.797852
2779.429688	9858.057617
2778.534180	10012.915039
2777.639648	10014.088867
2776.744141	9864.447266
2775.848633	9963.378906
2774.954102	10031.566406
2774.058594	9904.325195
2773.162109	9939.007813
2772.266602	9959.724609
2771.370117	9955.323242
2770.474609	10026.246094
2769.578125	9971.627930
2768.681641	9961.648438
2767.785156	10158.010742
2766.888672	10019.759766
2765.991211	10071.100586
2765.094727	10100.128906
2764.197266	10073.415039
2763.299805	10002.132813
2762.402344	10014.443359
2761.504883	9926.481445
2760.607422	9969.431641
2759.708984	10006.798828
2758.811523	9927.231445
2757.913086	9933.975586
2757.014648	10149.438477
2756.116211	9983.628906
2755.217773	10215.706055
2754.319336	10094.444336
2753.419922	10084.466797
2752.520508	10163.475586
2751.622070	10078.423828
2750.722656	10157.407227
2749.823242	10233.584961
2748.922852	9912.354492
2748.023438	10171.925781
2747.124023	10064.714844
2746.223633	9904.765625
2745.323242	10175.318359
2744.422852	10145.905273
2743.522461	10052.648438
2742.622070	10106.536133
2741.720703	10054.945313
2740.820313	9892.375977
2739.918945	10134.922852
2739.017578	9961.296875
2738.116211	10162.150391
2737.214844	10276.974609
2736.313477	10217.085938
2735.411133	10051.874023
2734.509766	10150.029297
2733.607422	10012.593750
2732.705078	9980.493164
2731.802734	9973.336914
2730.900391	9991.112305
2729.997070	10161.202148
2729.094727	9987.876953
2728.191406	10055.474609
2727.288086	10089.832031
2726.384766	10115.875000
2725.481445	9950.970703
2724.578125	10082.165039
2723.673828	9853.693359
2722.770508	9971.031250
2721.866211	10044.083008
2720.961914	9848.907227
2720.057617	9996.597656
2719.153320	9887.179688
2718.249023	9979.541992
2717.343750	10140.955078
2716.439453	10172.465820
2715.534180	9922.210938
2714.628906	9950.984375
2713.723633	10150.956055
2712.818359	10176.921875
2711.912109	9973.755859
2711.006836	10184.666016
2710.100586	10039.515625
2709.194336	10076.517578
2708.289063	9735.562500
2707.381836	10020.846680
2706.475586	9878.574219
2705.569336	10103.080078
2704.662109	10087.658203
2703.754883	9937.173828
2702.848633	9965.879883
2701.941406	10121.334961
2701.033203	10072.858398
2700.125977	10118.056641
2699.218750	10011.754883
2698.310547	10423.206055
2697.402344	9890.116211
2696.494141	10139.030273
2695.585938	10118.120117
2694.677734	10042.175781
2693.769531	10043.300781
2692.860352	9981.148438
2691.951172	10155.575195
2691.042969	10082.423828
2690.133789	10270.526367
2689.224609	10178.133789
2688.314453	10146.246094
2687.405273	10213.313477
2686.495117	10222.650391
2685.585938	10064.381836
2684.675781	10046.268555
2683.765625	10253.388672
2682.854492	10205.041016
2681.944336	10214.370117
2681.034180	10212.714844
2680.123047	10175.375977
2679.211914	10138.048828
2678.300781	10012.924805
2677.389648	10079.890625
2676.478516	10100.202148
2675.567383	10145.190430
2674.655273	10064.021484
2673.743164	10311.893555
2672.831055	10162.188477
2671.918945	10045.423828
2671.006836	10057.497070
2670.094727	10291.508789
2669.182617	10237.788086
2668.269531	10277.215820
2667.356445	10119.444336
2666.443359	9934.341797
2665.530273	10034.029297
2664.617188	10234.966797
2663.704102	10197.727539
2662.790039	10174.182617
2661.875977	10106.868164
2660.962891	10061.459961
2660.048828	10048.888672
2659.134766	10148.442383
2658.219727	10163.202148
2657.305664	10216.230469
2656.390625	10170.839844
2655.476563	10344.097656
2654.561523	10224.923828
2653.646484	10133.108398
2652.730469	10259.849609
2651.815430	9985.071289
2650.900391	10229.215820
2649.984375	10263.049805
2649.068359	10269.575195
2648.152344	10221.509766
2647.236328	10110.694336
2646.320313	10242.750977
2645.404297	10235.633789
2644.487305	10482.185547
2643.570313	10199.586914
2642.653320	10298.821289
2641.736328	10351.676758
2640.819336	10284.577148
2639.902344	10263.831055
2638.984375	10283.965820
2638.067383	10295.919922
2637.149414	10068.152344
2636.231445	10295.303711
2635.313477	10171.089844
2634.395508	10163.994141
2633.476563	10238.569336
2632.558594	10005.550781
2631.639648	10338.661133
2630.720703	10421.333984
2629.801758	10302.660156
2628.882813	10126.902344
2627.963867	10122.540039
2627.044922	10197.035156
2626.125000	10317.724609
2625.205078	10297.022461
2624.285156	10173.046875
2623.365234	10540.968750
2622.445313	10397.973633
2621.525391	10567.429688
2620.604492	10405.463867
2619.683594	10181.088867
2618.763672	10358.642578
2617.842773	10356.960938
2616.920898	10309.135742
2616.000000	10543.574219
2615.079102	10360.059570
2614.157227	10070.795898
2613.235352	10731.035156
2612.314453	10482.486328
2611.391602	10475.362305
2610.469727	10419.435547
2609.547852	10561.418945
2608.625000	10448.578125
2607.703125	10417.072266
2606.780273	10369.319336
2605.857422	10416.399414
2604.934570	10412.000000
2604.011719	10274.899414
2603.087891	10397.788086
2602.165039	10404.221680
2601.241211	10413.360352
2600.317383	10325.063477
2599.393555	10369.388672
2598.469727	10581.444336
2597.544922	10471.521484
2596.621094	10407.613281
2595.696289	10432.965820
2594.771484	10290.673828
2593.846680	10389.027344
2592.921875	10392.746094
2591.997070	10574.827148
2591.072266	10351.541992
2590.146484	10557.884766
2589.220703	10518.353516
2588.294922	10419.418945
2587.369141	10531.139648
2586.443359	10432.234375
2585.517578	10568.209961
2584.590820	10617.774414
2583.665039	10597.159180
2582.738281	10444.344727
2581.811523	10631.484375
2580.884766	10454.437500
2579.957031	10361.048828
2579.030273	10451.041992
2578.102539	10557.180664
2577.175781	10488.078125
2576.248047	10408.218750
2575.320313	10430.779297
2574.391602	10461.414063
2573.463867	10545.914063
2572.536133	10533.427734
2571.607422	10488.629883
2570.678711	10637.701172
2569.750000	10592.901367
2568.821289	10486.209961
2567.892578	10592.150391
2566.962891	10603.881836
2566.034180	10462.267578
2565.104492	10686.509766
2564.174805	10577.199219
2563.245117	10500.190430
2562.315430	10589.892578
2561.384766	10561.291016
2560.455078	10718.142578
2559.524414	10807.764648
2558.593750	10561.515625
2557.663086	10669.937500
2556.732422	10525.852539
2555.801758	10408.668945
2554.870117	10498.266602
2553.939453	10603.942383
2553.007813	10642.479492
2552.076172	10605.862305
2551.144531	10520.958008
2550.212891	10572.903320
2549.280273	10399.513672
2548.348633	10647.242188
2547.416016	10642.830078
2546.483398	10678.634766
2545.550781	10609.882813
2544.618164	10795.770508
2543.685547	10783.296875
2542.751953	10548.443359
2541.819336	10704.782227
2540.885742	10630.723633
2539.952148	10746.827148
2539.018555	10686.172852
2538.084961	10609.475586
2537.150391	10696.082031
2536.216797	10659.550781
2535.282227	10810.339844
2534.347656	10690.864258
2533.413086	10542.002930
2532.478516	10754.250977
2531.543945	10701.694336
2530.608398	10686.584961
2529.673828	10684.847656
2528.738281	10736.565430
2527.802734	10881.797852
2526.867188	10692.994141
2525.930664	10717.969727
2524.995117	10761.633789
2524.058594	10789.260742
2523.123047	10571.221680
2522.186523	10652.263672
2521.250000	10714.593750
2520.312500	10766.228516
2519.375977	10780.487305
2518.439453	10661.341797
2517.501953	10768.977539
2516.564453	10943.256836
2515.626953	10674.805664
2514.689453	10785.052734
2513.751953	10828.617188
2512.813477	10773.546875
2511.875977	10849.078125
2510.937500	10602.175781
2509.999023	10818.907227
2509.060547	10662.654297
2508.122070	10865.988281
2507.182617	10760.370117
2506.244141	10846.477539
2505.304688	10666.363281
2504.365234	10669.950195
2503.425781	10649.585938
2502.486328	10701.065430
2501.546875	10686.023438
2500.606445	10601.831055
2499.666016	10826.149414
2498.726563	10792.480469
2497.786133	10905.038086
2496.845703	10664.039063
2495.904297	10654.331055
2494.963867	10506.452148
2494.022461	10703.997070
2493.081055	10779.288086
2492.140625	10461.484375
2491.199219	10794.366211
2490.256836	10521.798828
2489.315430	10605.032227
2488.373047	10786.441406
2487.431641	10707.727539
2486.489258	10886.407227
2485.546875	10701.588867
2484.604492	10686.583984
2483.661133	10912.915039
2482.718750	10478.934570
2481.775391	10843.083008
2480.833008	10801.557617
2479.889648	10654.034180
2478.945313	10784.790039
2478.001953	10923.452148
2477.058594	10720.352539
2476.114258	10829.844727
2475.169922	10846.617188
2474.226563	10813.079102
2473.282227	10784.845703
2472.336914	10727.505859
2471.392578	10926.883789
2470.447266	10610.236328
2469.502930	10754.011719
2468.557617	10839.547852
2467.612305	10874.807617
2466.666992	10767.266602
2465.721680	10665.048828
2464.775391	10520.570313
2463.829102	10508.285156
2462.883789	10628.127930
2461.937500	10961.939453
2460.991211	10814.863281
2460.043945	10678.399414
2459.097656	10795.495117
2458.150391	10796.375977
2457.204102	10781.417969
2456.256836	10771.742188
2455.309570	10828.046875
2454.362305	10620.469727
2453.414063	10845.624023
2452.466797	10682.953125
2451.518555	10673.299805
2450.570313	10784.948242
2449.622070	10685.640625
2448.673828	10773.524414
2447.725586	10608.360352
2446.776367	10725.215820
2445.828125	10654.963867
2444.878906	10692.742188
2443.929688	10685.731445
2442.980469	10802.496094
2442.030273	10463.706055
2441.081055	10643.650391
2440.130859	10805.111328
2439.181641	10750.714844
2438.231445	10814.746094
2437.281250	10807.720703
2436.331055	10727.044922
2435.379883	10680.585938
2434.429688	10710.399414
2433.478516	10519.352539
2432.527344	10743.710938
2431.576172	10502.781250
2430.625000	10642.975586
2429.673828	10520.376953
2428.721680	10600.099609
2427.770508	10629.890625
2426.818359	10722.700195
2425.866211	10571.283203
2424.914063	10661.446289
2423.960938	10583.585938
2423.008789	10589.733398
2422.055664	10580.133789
2421.103516	10523.312500
2420.150391	10463.886719
2419.197266	10616.922852
2418.243164	10638.791992
2417.290039	10681.628906
2416.335938	10441.333008
2415.382813	10725.324219
2414.428711	10519.166016
2413.474609	10758.508789
2412.520508	10476.438477
2411.565430	10548.071289
2410.611328	10357.789063
2409.656250	10615.329102
2408.701172	10532.437500
2407.746094	10609.248047
2406.791016	10424.313477
2405.835938	10412.145508
2404.879883	10522.950195
2403.923828	10565.704102
2402.968750	10472.437500
2402.013672	10243.217773
2401.056641	10411.499023
2400.099609	10658.150391
2399.144531	10536.176758
2398.187500	10529.230469
2397.230469	10420.382813
2396.273438	10533.631836
2395.316406	10458.775391
2394.359375	10214.184570
2393.402344	10494.530273
2392.443359	10294.396484
2391.486328	10475.442383
2390.529297	10497.222656
2389.570313	10477.243164
2388.613281	10298.114258
2387.654297	10395.562500
2386.695313	10466.896484
2385.736328	10514.737305
2384.777344	10283.569336
2383.818359	10399.205078
2382.859375	10293.245117
2381.900391	10226.412109
2380.941406	10352.421875
2379.982422	10368.968750
2379.021484	10427.187500
2378.062500	10396.835938
2377.101563	10301.394531
2376.142578	10338.766602
2375.181641	10277.206055
2374.220703	10270.323242
2373.259766	10315.487305
2372.298828	10110.857422
2371.337891	10197.655273
2370.376953	10162.176758
2369.416016	10274.943359
2368.455078	10525.481445
2367.492188	10333.981445
2366.531250	10142.543945
2365.568359	10283.826172
2364.607422	10334.116211
2363.644531	10072.624023
2362.681641	10219.042969
2361.718750	10181.013672
2360.757813	9989.786133
2359.794922	10159.513672
2358.830078	10108.531250
2357.867188	10166.577148
2356.904297	10359.546875
2355.941406	10241.094727
2354.976563	10226.451172
2354.013672	10383.001953
2353.048828	10101.220703
2352.085938	10192.916992
2351.121094	10123.845703
2350.156250	10155.889648
2349.191406	10185.330078
2348.226563	10289.908203
2347.261719	10192.365234
2346.296875	9962.743164
2345.332031	10282.274414
2344.367188	10189.959961
2343.400391	9950.092773
2342.435547	9974.354492
2341.468750	10174.611328
2340.503906	10229.881836
2339.537109	10021.213867
2338.570313	10154.101563
2337.603516	9857.569336
2336.636719	10093.886719
2335.669922	10185.325195
2334.703125	10082.832031
2333.736328	10181.995117
2332.769531	10257.866211
2331.800781	10421.570313
2330.833984	10538.714844
2329.865234	10756.566406
2328.898438	10493.944336
2327.929688	10342.450195
2326.962891	10064.489258
2325.994141	10163.524414
2325.025391	10190.254883
2324.056641	10106.006836
2323.087891	10052.749023
2322.119141	9942.750977
2321.148438	9954.022461
2320.179688	9862.129883
2319.210938	9819.259766
2318.240234	10060.001953
2317.271484	10089.290039
2316.300781	9948.464844
2315.330078	9913.337891
2314.359375	9927.175781
2313.390625	10162.549805
2312.419922	10142.858398
2311.449219	9981.536133
2310.476563	10098.343750
2309.505859	9913.911133
2308.535156	9963.769531
2307.564453	9812.875000
2306.591797	9945.071289
2305.621094	10041.207031
2304.648438	10073.003906
2303.675781	9981.340820
2302.703125	10023.422852
2301.732422	10080.916016
2300.759766	9989.295898
2299.787109	9992.802734
2298.814453	9988.597656
2297.839844	9940.715820
2296.867188	9951.933594
2295.894531	9842.428711
2294.919922	10046.263672
2293.947266	9841.776367
2292.972656	9878.673828
2292.000000	9938.661133
2291.025391	9980.663086
2290.050781	9930.276367
2289.076172	9792.677734
2288.101563	9788.509766
2287.126953	10022.860352
2286.152344	9923.777344
2285.175781	9942.664063
2284.201172	9964.107422
2283.226563	9980.417969
2282.250000	10037.724609
2281.275391	9915.658203
2280.298828	9942.214844
2279.322266	9989.252930
2278.345703	9910.790039
2277.371094	9932.211914
2276.394531	10058.590820
2275.417969	10077.421875
2274.439453	9812.168945
2273.462891	9976.886719
2272.486328	9975.252930
2271.507813	9866.183594
2270.531250	9920.834961
2269.552734	10049.625977
2268.576172	10088.888672
2267.597656	10066.786133
2266.619141	10277.277344
2265.640625	10022.601563
2264.662109	9957.083008
2263.683594	9761.299805
2262.705078	10109.629883
2261.726563	9993.053711
2260.748047	9970.989258
2259.767578	9897.873047
2258.789063	10074.930664
2257.808594	10045.207031
2256.830078	10046.113281
2255.849609	10047.019531
2254.869141	9874.464844
2253.888672	9944.259766
2252.908203	9901.830078
2251.927734	9747.230469
2250.947266	9939.374023
2249.966797	9993.819336
2248.986328	10083.922852
2248.003906	9891.174805
2247.023438	9787.652344
2246.041016	9905.763672
2245.060547	9682.577148
2244.078125	9996.730469
2243.095703	10020.550781
2242.115234	10064.727539
2241.132813	9958.731445
2240.150391	9845.135742
2239.166016	9988.541992
2238.183594	9798.665039
2237.201172	10015.789063
2236.218750	9950.574219
2235.234375	10081.155273
2234.251953	9840.543945
2233.267578	9922.806641
2232.283203	9956.758789
2231.300781	9924.635742
2230.316406	9905.226563
2229.332031	10076.325195
2228.347656	9914.676758
2227.363281	9814.023438
2226.378906	9995.207031
2225.392578	9813.343750
2224.408203	10012.233398
2223.423828	9924.315430
2222.437500	10003.876953
2221.451172	10014.919922
2220.466797	10008.205078
2219.480469	10067.425781
2218.494141	9933.930664
2217.507813	9813.155273
2216.521484	9981.366211
2215.535156	9923.976563
2214.548828	9889.409180
2213.562500	9892.854492
2212.574219	9936.825195
2211.587891	10074.486328
2210.599609	9971.548828
2209.613281	9807.882813
2208.625000	9816.399414
2207.636719	9885.654297
2206.650391	9967.539063
2205.662109	9803.980469
2204.673828	9691.067383
2203.685547	9891.816406
2202.695313	9998.932617
2201.707031	10002.349609
2200.718750	10038.627930
2199.728516	9908.075195
2198.740234	10229.925781
2197.750000	9970.519531
2196.761719	9961.304688
2195.771484	9904.100586
2194.781250	9988.341797
2193.791016	10032.155273
2192.800781	9863.880859
2191.810547	9950.611328
2190.820313	9969.168945
2189.830078	9866.595703
2188.837891	10044.110352
2187.847656	10133.275391
2186.857422	10076.125000
2185.865234	9973.600586
2184.873047	9999.698242
2183.882813	9977.889648
2182.890625	9963.649414
2181.898438	9939.333008
2180.906250	9879.748047
2179.914063	9976.378906
2178.921875	9957.108398
2177.927734	10091.471680
2176.935547	10125.067383
2175.943359	10146.063477
2174.949219	10021.054688
2173.955078	10140.215820
2172.962891	10037.895508
2171.968750	9980.895508
2170.974609	9893.727539
2169.980469	9907.194336
2168.986328	10157.041992
2167.992188	10084.972656
2166.998047	10352.305664
2166.003906	10026.363281
2165.007813	10107.649414
2164.013672	9970.304688
2163.019531	9991.277344
2162.023438	10087.599609
2161.027344	10161.286133
2160.033203	10244.992188
2159.037109	10157.948242
2158.041016	10198.953125
2157.044922	10157.121094
2156.048828	10142.906250
2155.052734	10131.204102
2154.054688	10111.980469
2153.058594	10183.054688
2152.062500	10218.998047
2151.064453	10290.031250
2150.066406	10122.885742
2149.070313	10274.118164
2148.072266	10254.887695
2147.074219	10325.867188
2146.076172	10264.044922
2145.078125	10137.116211
2144.080078	10270.689453
2143.082031	10256.481445
2142.083984	10162.163086
2141.083984	10170.505859
2140.085938	10354.041016
2139.085938	10337.325195
2138.087891	10425.697266
2137.087891	10286.397461
2136.087891	10217.176758
2135.089844	10330.531250
2134.089844	10066.298828
2133.089844	10314.635742
2132.087891	10362.930664
2131.087891	10228.775391
2130.087891	10332.038086
2129.087891	10265.384766
2128.085938	10143.799805
2127.085938	10217.055664
2126.083984	10225.364258
2125.082031	10328.541992
2124.082031	10469.127930
2123.080078	10242.784180
2122.078125	10418.273438
2121.076172	10239.416016
2120.074219	10272.656250
2119.070313	10285.932617
2118.068359	10169.528320
2117.066406	10297.509766
2116.062500	10390.547852
2115.060547	10334.003906
2114.056641	10245.080078
2113.054688	10280.770508
2112.050781	10171.954102
2111.046875	10264.935547
2110.042969	10133.742188
2109.039063	10458.273438
2108.035156	10329.581055
2107.031250	10255.694336
2106.025391	10261.473633
2105.021484	10334.438477
2104.015625	10016.759766
2103.011719	10109.641602
2102.005859	10436.288086
2101.000000	10188.378906
2099.996094	10311.022461
2098.990234	10264.578125
2097.984375	10285.259766
2096.978516	10174.220703
2095.972656	10264.481445
2094.964844	10389.494141
2093.958984	10285.943359
2092.953125	10455.613281
2091.945313	10230.413086
2090.939453	10315.624023
2089.931641	10321.373047
2088.923828	10034.257813
2087.916016	10213.753906
2086.908203	10313.796875
2085.900391	10255.043945
2084.892578	10337.684570
2083.884766	10147.514648
2082.876953	10406.185547
2081.869141	10330.101563
2080.859375	10209.427734
2079.851563	10334.135742
2078.841797	10215.977539
2077.833984	10167.225586
2076.824219	10301.785156
2075.814453	10233.221680
2074.804688	10347.916992
2073.794922	10276.891602
2072.785156	10218.266602
2071.775391	10149.760742
2070.763672	10321.306641
2069.753906	10473.003906
2068.744141	10199.168945
2067.732422	10298.895508
2066.720703	10247.741211
2065.710938	10226.273438
2064.699219	10333.361328
2063.687500	10044.944336
2062.675781	10332.429688
2061.664063	10387.557617
2060.652344	10225.266602
2059.640625	10322.384766
2058.628906	10273.760742
2057.615234	10289.353516
2056.603516	10317.284180
2055.589844	10330.395508
2054.578125	10471.838867
2053.564453	10349.200195
2052.550781	10342.560547
2051.537109	10370.458008
2050.523438	10302.157227
2049.509766	10189.489258
2048.496094	10409.713867
2047.482422	10178.736328
2046.466797	10349.593750
2045.453125	10209.883789
2044.439453	10449.668945
2043.423828	10376.503906
2042.408203	10204.836914
2041.394531	10272.111328
2040.378906	10336.901367
2039.363281	10421.366211
2038.347656	10446.724609
2037.332031	10422.852539
2036.316406	10357.156250
2035.298828	10389.893555
2034.283203	10307.003906
2033.265625	10433.199219
2032.250000	10340.492188
2031.232422	10402.713867
2030.216797	10435.414063
2029.199219	10404.199219
2028.181641	10439.346680
2027.164063	10469.567383
2026.146484	10416.250977
2025.128906	10385.058594
2024.111328	10555.255859
2023.091797	10509.317383
2022.074219	10487.943359
2021.056641	10282.479492
2020.037109	10356.864258
2019.017578	10350.249023
2018.000000	10444.225586
2016.980469	10270.791992
2015.960938	10300.981445
2014.941406	10360.587891
2013.921875	10572.186523
2012.902344	10175.766602
2011.882813	10257.421875
2010.861328	10255.729492
2009.841797	10320.193359
2008.820313	10186.202148
2007.800781	10316.788086
2006.779297	10344.474609
2005.757813	10308.487305
2004.738281	10225.997070
2003.716797	10224.309570
2002.695313	10229.964844
2001.671875	10294.344727
2000.650391	10339.130859
1999.628906	10036.548828
1998.607422	10157.179688
1997.583984	10258.208008
1996.562500	10080.479492
1995.539063	10359.937500
1994.515625	10238.464844
1993.494141	10129.250977
1992.470703	10029.846680
1991.447266	10182.094727
1990.423828	10094.925781
1989.400391	10000.458984
1988.375000	10357.740234
1987.351563	10102.134766
1986.328125	10066.293945
1985.302734	10035.346680
1984.279297	10197.175781
1983.253906	10195.493164
1982.228516	9988.909180
1981.203125	10084.815430
1980.177734	10034.379883
1979.152344	10105.866211
1978.126953	9994.501953
1977.101563	9785.682617
1976.076172	9991.201172
1975.050781	9870.164063
1974.023438	9963.541016
1972.998047	10127.521484
1971.970703	9955.379883
1970.943359	9883.124023
1969.917969	9991.042969
1968.890625	9972.354492
1967.863281	9873.360352
1966.835938	9983.660156
1965.808594	9967.414063
1964.779297	9890.361328
1963.751953	10056.539063
1962.724609	9926.000000
1961.695313	9822.248047
1960.667969	9922.720703
1959.638672	9733.937500
1958.609375	9800.370117
1957.580078	9776.883789
1956.550781	9860.291992
1955.521484	9941.243164
1954.492188	9908.031250
1953.462891	9920.961914
1952.433594	9822.216797
1951.404297	9866.711914
1950.373047	9964.581055
1949.343750	9814.921875
1948.312500	9866.672852
1947.281250	9906.277344
1946.250000	9972.546875
1945.220703	9924.826172
1944.189453	10037.133789
1943.158203	10154.252930
1942.125000	10033.816406
1941.093750	10090.315430
1940.062500	10042.613281
1939.031250	10007.039063
1937.998047	9961.788086
1936.964844	10146.606445
1935.933594	9905.227539
1934.900391	9901.168945
1933.867188	9996.349609
1932.833984	9997.116211
1931.800781	10002.721680
1930.767578	9901.879883
1929.734375	10023.602539
1928.701172	9888.931641
1927.666016	10049.303711
1926.632813	9875.990234
1925.597656	9961.376953
1924.564453	10012.900391
1923.529297	10028.159180
1922.494141	9990.259766
1921.458984	10114.219727
1920.423828	9957.972656
1919.388672	10048.088867
1918.353516	9998.137695
1917.318359	10064.077148
1916.283203	10076.893555
1915.246094	10147.623047
1914.210938	9964.982422
1913.173828	10050.181641
1912.138672	10012.337891
1911.101563	10126.439453
1910.064453	10250.148438
1909.027344	10113.445313
1907.990234	10157.570313
1906.953125	10004.056641
1905.916016	10062.642578
1904.876953	10183.848633
1903.839844	10061.720703
1902.802734	10175.661133
1901.763672	10039.125977
1900.724609	10263.783203
1899.687500	10185.052734
1898.648438	10207.435547
1897.609375	10075.797852
1896.570313	10184.807617
1895.531250	10091.707031
1894.492188	10193.462891
1893.451172	10292.779297
1892.412109	10038.606445
1891.373047	10099.450195
1890.332031	10222.768555
1889.291016	10033.622070
1888.251953	10219.383789
1887.210938	10097.568359
1886.169922	10177.566406
1885.128906	10195.094727
1884.087891	10082.948242
1883.046875	10179.713867
1882.005859	10096.412109
1880.962891	10077.939453
1879.921875	10141.061523
1878.880859	10067.403320
1877.837891	10128.107422
1876.794922	10076.061523
1875.753906	9997.653320
1874.710938	10338.868164
1873.667969	10116.603516
1872.625000	10167.660156
1871.582031	10062.925781
1870.537109	10236.174805
1869.494141	10114.693359
1868.451172	9971.693359
1867.406250	10005.964844
1866.363281	10162.345703
1865.318359	10050.532227
1864.273438	10039.291992
1863.230469	10176.441406
1862.185547	10026.393555
1861.140625	9993.628906
1860.095703	10066.128906
1859.048828	10124.254883
1858.003906	9909.747070
1856.958984	10030.042969
1855.912109	10080.972656
1854.867188	10060.180664
1853.820313	9953.363281
1852.773438	10052.067383
1851.728516	9983.509766
1850.681641	9993.797852
1849.634766	9913.331055
1848.587891	9957.055664
1847.541016	10041.350586
1846.492188	9789.051758
1845.445313	9854.252930
1844.398438	10017.267578
1843.349609	9958.346680
1842.302734	10006.789063
1841.253906	9919.269531
1840.205078	9781.702148
1839.156250	9772.926758
1838.107422	9838.053711
1837.058594	9567.093750
1836.009766	9801.427734
1834.960938	9823.628906
1833.912109	9841.057617
1832.861328	9941.844727
1831.812500	9794.926758
1830.761719	9719.489258
1829.710938	9798.820313
1828.662109	9682.941406
1827.611328	9874.105469
1826.560547	9779.666992
1825.509766	9818.489258
1824.458984	9909.628906
1823.408203	9829.500977
1822.355469	9965.789063
1821.304688	9904.697266
1820.251953	9791.330078
1819.201172	9910.917969
1818.148438	9750.059570
1817.095703	9948.019531
1816.044922	9782.457031
1814.992188	9719.080078
1813.939453	9741.213867
1812.886719	9656.495117
1811.832031	9878.044922
1810.779297	9805.198242
1809.726563	9803.570313
1808.671875	9785.333984
1807.619141	9743.378906
1806.564453	9891.197266
1805.509766	9780.461914
1804.457031	9923.481445
1803.402344	9909.979492
1802.347656	9889.371094
1801.292969	9951.719727
1800.238281	9786.563477
1799.181641	9908.138672
1798.126953	9844.903320
1797.070313	9739.057617
1796.015625	9806.113281
1794.958984	9868.412109
1793.904297	9973.300781
1792.847656	9758.625000
1791.791016	9977.087891
1790.734375	9911.545898
1789.677734	10075.499023
1788.621094	9988.673828
1787.562500	9674.846680
1786.505859	9770.185547
1785.449219	9778.018555
1784.390625	9982.039063
1783.333984	9791.313477
1782.275391	9936.189453
1781.216797	9974.702148
1780.158203	9942.336914
1779.099609	9820.235352
1778.041016	9875.276367
1776.982422	9816.971680
1775.923828	9952.254883
1774.865234	9893.957031
1773.804688	9859.275391
1772.746094	9916.622070
1771.685547	9983.385742
1770.625000	9866.154297
1769.566406	9753.676758
1768.505859	10011.418945
1767.445313	9941.388672
1766.384766	10123.587891
1765.322266	9902.734375
1764.261719	9910.513672
1763.201172	9934.781250
1762.140625	10001.438477
1761.078125	10070.429688
1760.015625	9946.310547
1758.955078	10015.286133
1757.892578	10027.745117
1756.830078	9802.491211
1755.767578	10043.235352
1754.705078	10041.565430
1753.642578	9804.659180
1752.580078	10026.466797
1751.515625	9871.946289
1750.453125	10201.823242
1749.390625	9972.098633
1748.326172	9911.679688
1747.261719	10018.132813
1746.199219	9856.691406
1745.134766	9951.371094
1744.070313	9949.715820
1743.005859	9938.666992
1741.941406	10045.024414
1740.875000	10019.876953
1739.810547	9875.025391
1738.746094	9981.339844
1737.679688	9991.412109
1736.615234	9935.789063
1735.548828	9882.530273
1734.482422	10134.181641
1733.416016	10019.938477
1732.349609	10116.742188
1731.283203	9941.590820
1730.216797	9965.718750
1729.150391	10153.874023
1728.083984	10091.266602
1727.015625	10040.392578
1725.949219	10216.729492
1724.880859	9948.061523
1723.812500	10154.792969
1722.746094	10096.917969
1721.677734	10003.952148
1720.609375	9948.460938
1719.541016	10122.294922
1718.472656	10010.654297
1717.404297	10079.160156
1716.333984	9822.563477
1715.265625	9942.520508
1714.195313	9994.637695
1713.126953	9950.898438
1712.056641	10061.424805
1710.986328	10111.158203
1709.916016	9957.610352
1708.845703	10100.783203
1707.775391	10022.026367
1706.705078	10020.357422
1705.634766	10247.500000
1704.564453	9932.980469
1703.492188	9907.986328
1702.421875	10016.017578
1701.349609	9998.016602
1700.279297	10014.536133
1699.207031	10031.055664
1698.134766	10047.574219
1697.062500	10064.093750
1695.990234	10080.613281
1694.917969	10071.941406
1693.845703	10035.304688
1692.771484	9905.474609
1691.699219	10006.333984
1690.625000	9972.055664
1689.552734	9993.683594
1688.478516	9987.361328
1687.404297	10125.389648
1686.330078	10063.179688
1685.255859	9910.218750
1684.181641	10036.554688
1683.107422	9967.409180
1682.033203	9928.527344
1680.958984	9998.975586
1679.882813	10048.469727
1678.808594	9923.564453
1677.732422	10110.211914
1676.656250	9892.364258
1675.582031	9941.841797
1674.505859	9877.448242
1673.429688	10147.612305
1672.353516	10113.402344
1671.277344	10004.885742
1670.199219	10110.030273
1669.123047	9783.317383
1668.046875	9907.032227
1666.968750	9884.493164
1665.890625	9864.281250
1664.814453	10041.282227
1663.736328	10097.599609
1662.658203	10019.378906
1661.580078	9948.140625
1660.501953	9918.659180
1659.423828	9898.458984
1658.345703	9824.958008
1657.265625	9878.936523
1656.187500	9851.801758
1655.107422	9732.011719
1654.029297	9950.427734
1652.949219	9920.978516
1651.869141	9831.336914
1650.789063	9859.791992
1649.708984	9765.560547
1648.628906	9775.502930
1647.548828	9817.835938
1646.468750	9684.328125
1645.386719	9756.731445
1644.306641	9771.292969
1643.224609	9792.785156
1642.144531	9860.509766
1641.062500	9821.878906
1639.980469	9817.928711
1638.898438	9707.682617
1637.816406	9740.718750
1636.734375	9806.083984
1635.652344	9598.888672
1634.570313	9474.895508
1633.486328	9547.198242
1632.404297	9617.166992
1631.320313	9569.399414
1630.236328	9572.417969
1629.154297	9522.365234
1628.070313	9594.597656
1626.986328	9560.704102
1625.902344	9706.703125
1624.818359	9658.966797
1623.734375	9608.940430
1622.648438	9517.439453
1621.564453	9589.598633
1620.478516	9417.482422
1619.394531	9445.860352
1618.308594	9580.188477
1617.222656	9557.860352
1616.136719	9540.144531
1615.050781	9428.039063
1613.964844	9580.695313
1612.878906	9441.000977
1611.792969	9531.470703
1610.707031	9486.164063
1609.619141	9535.187500
1608.533203	9347.292969
1607.445313	9433.117188
1606.357422	9528.110352
1605.271484	9464.448242
1604.183594	9352.540039
1603.095703	9658.922852
1602.007813	9756.110352
1600.919922	9497.178711
1599.830078	9337.102539
1598.742188	9343.124023
1597.652344	9349.146484
1596.564453	9355.167969
1595.474609	9361.190430
1594.386719	9367.211914
1593.296875	9373.234375
1592.207031	9379.255859
1591.117188	9385.278320
1590.027344	9391.299805
1588.937500	9397.322266
1587.845703	9403.343750
1586.755859	9409.366211
1585.664063	9415.387695
1584.574219	9571.932617
1583.482422	9600.117188
1582.390625	9621.420898
1581.300781	9672.491211
1580.208984	9531.181641
1579.117188	9465.476563
1578.025391	9770.657227
1576.931641	9691.201172
1575.839844	9774.254883
1574.748047	9662.790039
1573.654297	9663.461914
1572.560547	9645.833984
1571.468750	9776.865234
1570.375000	9724.924805
1569.281250	9791.884766
1568.187500	9767.387695
1567.093750	9660.623047
1566.000000	9830.387695
1564.906250	9778.479492
1563.810547	9831.666992
1562.716797	9736.380859
1561.621094	9832.944336
1560.527344	9968.289063
1559.431641	9909.550781
1558.335938	9869.091797
1557.240234	9915.362305
1556.144531	10096.234375
1555.048828	10067.168945
1553.953125	10079.169922
1552.857422	9999.946289
1551.759766	9991.431641
1550.664063	9850.696289
1549.566406	9915.148438
1548.470703	9927.162109
1547.373047	9930.057617
1546.275391	9983.072266
1545.177734	9958.623047
1544.080078	9804.367188
1542.982422	9814.110352
1541.884766	9999.155273
1540.785156	9874.560547
1539.687500	9922.977539
1538.587891	9987.305664
1537.490234	9946.956055
1536.390625	9756.484375
1535.291016	9768.497070
1534.193359	9944.233398
1533.093750	9806.150391
1531.992188	9718.125000
1530.892578	9811.957031
1529.792969	9667.147461
1528.693359	9849.568359
1527.591797	9854.733398
1526.492188	9691.817383
1525.390625	10062.631836
1524.289063	9920.169922
1523.189453	10016.125977
1522.087891	9712.561523
1520.986328	9674.623047
1519.882813	9879.487305
1518.781250	9725.830078
1517.679688	9864.834961
1516.578125	9704.427734
1515.474609	9834.318359
1514.371094	9617.290039
1513.269531	9790.219727
1512.166016	9627.665039
1511.062500	9621.519531
1509.958984	9871.392578
1508.855469	9636.416016
1507.751953	9677.833984
1506.648438	9696.591797
1505.542969	9577.232422
1504.439453	9770.308594
1503.333984	9684.925781
1502.230469	9502.263672
1501.125000	9640.951172
1500.019531	9537.535156
1498.914063	9603.791016
1497.808594	9656.456055
1496.703125	9749.802734
1495.597656	9813.727539
1494.492188	9470.772461
1493.384766	9451.104492
1492.279297	9623.506836
1491.171875	9678.372070
1490.066406	9735.477539
1488.958984	9711.260742
1487.851563	9619.309570
1486.744141	9527.388672
1485.636719	9654.457031
1484.529297	9589.643555
1483.421875	9504.542969
1482.312500	9403.676758
1481.205078	9578.049805
1480.095703	9436.608398
1478.988281	9453.065430
1477.878906	9487.553711
1476.769531	9409.316406
1475.660156	9416.752930
1474.550781	9527.847656
1473.441406	9393.314453
1472.332031	9468.331055
1471.222656	9408.180664
1470.111328	9532.713867
1469.001953	9382.506836
1467.890625	9574.538086
1466.781250	9431.126953
1465.669922	9476.803711
1464.558594	9486.463867
1463.447266	9379.133789
1462.335938	9449.538086
1461.224609	9663.853516
1460.113281	9635.248047
1459.000000	9575.176758
1457.888672	9512.876953
1456.775391	9524.764648
1455.664063	9543.388672
1454.550781	9618.174805
1453.437500	9407.650391
1452.324219	9468.957031
1451.210938	9460.629883
1450.097656	9629.676758
1448.984375	9715.607422
1447.871094	9743.153320
1446.755859	9613.604492
1445.642578	9564.872070
1444.527344	9664.214844
1443.412109	9678.291992
1442.298828	9524.170898
1441.183594	9486.696289
1440.068359	9657.721680
1438.953125	9786.102539
1437.837891	9607.414063
1436.720703	9731.278320
1435.605469	9584.023438
1434.490234	9788.486328
1433.373047	9421.793945
1432.255859	9375.427734
1431.140625	9700.716797
1430.023438	9562.541992
1428.906250	9594.505859
1427.789063	9635.409180
1426.671875	9647.212891
1425.554688	9612.038086
1424.435547	9603.711914
1423.318359	9590.916992
1422.199219	9604.955078
1421.082031	9663.696289
1419.962891	9590.550781
1418.843750	9445.919922
1417.724609	9529.234375
1416.605469	9637.093750
1415.486328	9514.862305
1414.367188	9551.226563
1413.248047	9545.154297
1412.126953	9454.252930
1411.007813	9562.032227
1409.886719	9538.107422
1408.767578	9549.891602
1407.646484	9474.665039
1406.525391	9568.984375
1405.404297	9404.573242
1404.283203	9677.254883
1403.162109	9568.615234
1402.041016	9348.560547
1400.917969	9445.048828
1399.796875	9131.500000
1398.673828	9399.540039
1397.552734	9433.599609
1396.429688	9394.150391
1395.306641	9468.280273
1394.183594	9286.347656
1393.060547	9280.333008
1391.937500	9318.833008
1390.814453	9375.122070
1389.691406	9313.471680
1388.566406	9120.594727
1387.443359	9288.095703
1386.318359	9419.958984
1385.195313	9122.660156
1384.070313	9378.997070
1382.945313	9326.296875
1381.820313	9162.499023
1380.695313	9280.940430
1379.570313	9210.509766
1378.443359	9366.662109
1377.318359	9298.460938
1376.193359	9383.492188
1375.066406	9228.728516
1373.939453	9391.430664
1372.814453	9205.647461
1371.687500	9379.392578
1370.560547	9517.581055
1369.433594	9535.942383
1368.306641	9414.574219
1367.177734	9437.380859
1366.050781	9413.620117
1364.923828	9458.584961
1363.794922	9350.609375
1362.666016	9300.283203
1361.539063	9234.464844
1360.410156	9368.036133
1359.281250	9503.776367
1358.152344	9508.818359
1357.023438	9593.565430
1355.892578	9518.896484
1354.763672	9559.345703
1353.634766	9568.799805
1352.503906	9564.974609
1351.375000	9618.667969
1350.244141	9482.125000
1349.113281	9500.429688
1347.982422	9518.728516
1346.851563	9587.867188
1345.720703	9500.047852
1344.589844	9659.774414
1343.458984	9525.570313
1342.326172	9311.878906
1341.195313	9546.656250
1340.062500	9659.887695
1338.931641	9614.096680
1337.798828	9683.124023
1336.666016	9590.989258
1335.533203	9514.333984
1334.400391	9594.375000
1333.267578	9526.569336
1332.132813	9619.815430
1331.000000	9732.879883
1329.867188	9662.878906
1328.732422	9683.296875
1327.597656	9571.444336
1326.464844	9620.522461
1325.330078	9770.951172
1324.195313	9678.968750
1323.060547	9767.655273
1321.925781	9706.539063
1320.789063	9700.497070
1319.654297	9608.587891
1318.517578	9708.231445
1317.382813	9660.372070
1316.246094	9726.962891
1315.111328	9456.884766
1313.974609	9651.083008
1312.837891	9616.460938
1311.701172	9696.208008
1310.564453	9602.220703
1309.425781	9503.869141
1308.289063	9409.946289
1307.152344	9557.801758
1306.013672	9696.817383
1304.875000	9387.606445
1303.738281	9484.868164
1302.599609	9500.836914
1301.460938	9523.387695
1300.322266	9589.839844
1299.183594	9570.659180
1298.044922	9509.786133
1296.904297	9457.709961
1295.765625	9366.159180
1294.625000	9379.933594
1293.486328	9446.339844
1292.345703	9541.231445
1291.205078	9302.829102
1290.064453	9375.791016
1288.923828	9437.768555
1287.783203	9295.925781
1286.642578	9506.885742
1285.501953	9143.820313
1284.359375	9299.976563
1283.218750	9368.483398
1282.076172	9432.587891
1280.935547	9494.480469
1279.792969	9481.932617
1278.650391	9384.039063
1277.507813	9454.660156
1276.365234	9411.496094
1275.222656	9252.417969
1274.078125	9121.823242
1272.935547	9349.874023
1271.792969	9422.625977
1270.648438	9327.041992
1269.503906	9220.562500
1268.359375	9306.409180
1267.216797	9311.389648
1266.072266	9443.063477
1264.927734	9452.386719
1263.781250	9535.951172
1262.636719	9291.996094
1261.492188	9375.558594
1260.345703	9332.505859
1259.201172	9440.036133
1258.054688	9405.712891
1256.908203	9425.937500
1255.761719	9529.034180
1254.615234	9342.064453
1253.468750	9405.894531
1252.322266	9345.445313
1251.175781	9228.346680
1250.029297	9418.556641
1248.880859	9366.850586
1247.732422	9480.725586
1246.585938	9524.862305
1245.437500	9375.165039
1244.289063	9367.046875
1243.140625	9378.524414
1241.992188	9659.900391
1240.843750	9540.748047
1239.695313	9541.309570
1238.544922	9711.562500
1237.396484	9579.410156
1236.246094	9601.711914
1235.097656	9478.319336
1233.947266	9531.066406
1232.796875	9577.275391
1231.646484	9525.667969
1230.496094	9680.508789
1229.345703	9757.083984
1228.195313	9620.754883
1227.042969	9740.750000
1225.892578	9689.157227
1224.740234	9691.859375
1223.589844	9616.413086
1222.437500	9688.578125
1221.285156	9780.249023
1220.132813	9726.521484
1218.980469	9753.076172
1217.828125	9686.357422
1216.675781	9656.526367
1215.521484	9589.845703
1214.369141	9785.492188
1213.214844	9866.198242
1212.062500	9775.677734
1210.908203	9821.689453
1209.753906	9830.858398
1208.599609	9794.537109
1207.445313	9743.069336
1206.291016	9600.678711
1205.134766	9882.651367
1203.980469	9783.574219
1202.826172	9784.081055
1201.669922	9780.259766
1200.513672	9793.747070
1199.359375	9856.978516
1198.203125	9833.682617
1197.046875	9808.230469
1195.890625	9832.511719
1194.734375	9867.592773
1193.576172	9718.958984
1192.419922	9905.304688
1191.263672	9918.750000
1190.105469	9910.588867
1188.947266	9878.671875
1187.791016	9920.185547
1186.632813	9907.708984
1185.474609	9882.285156
1184.316406	9928.091797
1183.156250	9950.145508
1181.998047	10019.658203
1180.839844	10005.016602
1179.679688	10119.789063
1178.521484	9969.277344
1177.361328	10043.050781
1176.201172	9978.832031
1175.042969	9942.654297
1173.882813	9822.443359
1172.720703	10023.312500
1171.560547	10150.868164
1170.400391	10166.377930
1169.240234	10089.280273
1168.078125	10025.127930
1166.917969	10064.330078
1165.755859	10073.385742
1164.593750	10202.953125
1163.431641	10248.559570
1162.269531	10102.681641
1161.107422	10232.176758
1159.945313	10269.152344
1158.783203	10220.104492
1157.619141	10437.658203
1156.457031	10588.501953
1155.292969	10369.641602
1154.130859	10415.155273
1152.966797	10475.692383
1151.802734	10549.096680
1150.638672	10843.687500
1149.474609	10584.167969
1148.310547	10528.697266
1147.144531	10644.973633
1145.980469	10729.015625
1144.814453	10757.237305
1143.650391	10828.358398
1142.484375	10601.280273
1141.318359	10914.762695
1140.154297	10711.334961
1138.988281	10986.098633
1137.820313	10932.784180
1136.654297	11005.944336
1135.488281	11100.508789
1134.320313	11030.060547
1133.154297	11165.290039
1131.986328	11257.636719
1130.820313	11304.978516
1129.652344	11326.611328
1128.484375	11504.512695
1127.316406	11504.699219
1126.148438	11768.110352
1124.980469	11539.305664
1123.810547	11699.933594
1122.642578	11704.362305
1121.472656	11768.670898
1120.304688	11935.591797
1119.134766	11820.256836
1117.964844	11980.698242
1116.794922	11965.839844
1115.625000	12147.569336
1114.455078	12226.689453
1113.285156	12278.012695
1112.113281	12380.575195
1110.943359	12177.750000
1109.771484	12303.778320
1108.601563	12412.686523
1107.429688	12632.537109
1106.257813	12690.137695
1105.085938	12690.114258
1103.914063	12871.408203
1102.742188	12860.688477
1101.570313	13052.552734
1100.396484	13050.333984
1099.224609	13286.865234
1098.050781	13220.666016
1096.878906	13269.561523
1095.705078	13045.721680
1094.531250	13522.808594
1093.357422	13469.391602
1092.183594	13467.101563
1091.009766	13558.494141
1089.835938	13781.840820
1088.660156	13749.698242
1087.486328	13758.000000
1086.310547	14000.346680
1085.134766	13936.272461
1083.960938	14050.885742
1082.785156	14252.651367
1081.609375	14148.166016
1080.433594	14315.832031
1079.257813	14124.222656
1078.080078	14308.834961
1076.904297	14395.642578
1075.726563	14730.982422
1074.550781	14679.621094
1073.373047	14679.247070
1072.195313	14727.709961
1071.017578	15064.884766
1069.839844	14915.858398
1068.662109	15176.483398
1067.484375	15180.265625
1066.306641	15188.289063
1065.126953	15518.733398
1063.949219	15594.562500
1062.769531	15460.437500
1061.589844	15587.132813
1060.410156	15862.167969
1059.230469	15660.244141
1058.050781	15971.195313
1056.871094	16201.530273
1055.691406	15929.745117
1054.511719	16200.249023
1053.330078	16451.601563
1052.150391	16400.103516
1050.968750	16534.906250
1049.787109	16684.480469
1048.605469	16721.845703
1047.423828	16871.333984
1046.242188	16885.382813
1045.060547	16901.542969
1043.878906	17188.378906
1042.695313	17037.445313
1041.513672	17059.912109
1040.330078	17130.982422
1039.148438	17538.037109
1037.964844	17429.404297
1036.781250	17496.148438
1035.597656	17695.937500
1034.414063	17669.691406
1033.230469	17645.564453
1032.044922	17874.781250
1030.861328	18049.037109
1029.675781	17919.337891
1028.492188	18112.515625
1027.306641	18027.150391
1026.121094	18133.761719
1024.935547	18463.886719
1023.750000	18705.335938
1022.564453	18198.277344
1021.378906	18696.849609
1020.191406	18619.898438
1019.005859	18797.939453
1017.818359	18851.617188
1016.632813	18785.208984
1015.445313	18716.718750
1014.257813	18955.683594
1013.070313	18977.714844
1011.882813	19172.349609
1010.695313	18912.312500
1009.507813	19433.052734
1008.318359	19032.097656
1007.130859	19266.552734
1005.941406	19181.242188
1004.751953	19074.929688
1003.564453	19452.226563
1002.375000	19289.146484
1001.185547	19180.765625
999.996094	19127.058594
998.804688	19392.730469
997.615234	19078.519531
996.425781	19209.683594
995.234375	19557.103516
994.042969	19314.408203
992.853516	19462.259766
991.662109	19362.388672
990.470703	19306.619141
989.279297	19286.539063
988.087891	19419.605469
986.894531	19458.240234
985.703125	19322.798828
984.511719	19357.242188
983.318359	19519.552734
982.125000	19340.152344
980.933594	19209.013672
979.740234	19440.410156
978.546875	19120.751953
977.353516	19171.945313
976.158203	19396.945313
974.964844	19288.937500
973.771484	19250.054688
972.576172	19219.554688
971.382813	19155.580078
970.187500	18955.617188
968.992188	19069.537109
967.796875	19093.472656
966.601563	19021.195313
965.406250	18988.669922
964.210938	18974.972656
963.013672	18777.332031
961.818359	19175.396484
960.621094	19055.101563
959.425781	18930.669922
958.228516	18908.634766
957.031250	19032.802734
955.833984	19037.904297
954.636719	19164.095703
953.439453	18714.103516
952.242188	18842.392578
951.042969	18749.441406
949.845703	18735.804688
948.646484	18732.601563
947.447266	18710.626953
946.250000	18715.771484
945.050781	18804.308594
943.851563	18561.363281
942.650391	18622.802734
941.451172	18761.324219
940.251953	19018.558594
939.050781	18844.484375
937.851563	18710.042969
936.650391	18788.060547
935.449219	18614.113281
934.250000	18704.609375
933.048828	18668.107422
931.847656	18508.835938
930.644531	18590.978516
929.443359	18687.654297
928.242188	18555.500000
927.039063	18589.757813
925.837891	18522.121094
924.634766	18587.554688
923.431641	18470.054688
922.228516	18514.693359
921.025391	18476.201172
919.822266	18435.644531
918.619141	18442.875000
917.414063	18477.101563
916.210938	18297.443359
915.005859	18209.193359
913.802734	18162.486328
912.597656	18111.644531
911.392578	18143.820313
910.187500	18061.876953
908.982422	17950.921875
907.777344	18124.132813
906.572266	18203.974609
905.365234	17755.113281
904.160156	17667.085938
902.953125	17686.857422
901.746094	17797.798828
900.541016	17616.576172
899.333984	17516.201172
898.126953	17674.746094
896.919922	17651.011719
895.710938	17507.203125
894.503906	17442.103516
893.296875	17343.910156
892.087891	17392.671875
890.878906	17176.589844
889.671875	17041.255859
888.462891	16970.083984
887.253906	17126.404297
886.044922	16916.714844
884.833984	16756.708984
883.625000	16859.248047
882.416016	16736.501953
881.205078	16789.419922
879.996094	16641.937500
878.785156	16321.009766
877.574219	16522.656250
876.363281	16499.175781
875.152344	16372.486328
873.941406	16363.488281
872.730469	16152.253906
871.517578	16176.307617
870.306641	15979.617188
869.093750	15925.313477
867.880859	15769.976563
866.669922	15829.129883
865.457031	15614.077148
864.244141	15539.258789
863.031250	15697.338867
861.816406	15597.804688
860.603516	15485.943359
859.390625	15466.809570
858.175781	15404.433594
856.962891	15412.086914
855.748047	15298.273438
854.533203	15203.023438
853.318359	15081.050781
852.103516	15053.772461
850.888672	15114.965820
849.671875	14900.507813
848.457031	14965.818359
847.242188	14971.475586
846.025391	14952.459961
844.808594	14711.452148
843.591797	14795.246094
842.376953	14613.936523
841.158203	14905.218750
839.941406	14551.405273
838.724609	14647.489258
837.507813	14573.105469
836.289063	14665.044922
835.072266	14664.581055
833.853516	14725.686523
832.634766	14797.031250
831.416016	14587.273438
830.197266	14496.563477
828.978516	14608.927734
827.759766	14569.508789
826.541016	14718.725586
825.320313	14507.108398
824.101563	14785.405273
822.880859	14594.339844
821.660156	14563.150391
820.441406	14515.582031
819.220703	14513.089844
818.000000	14582.269531
816.777344	14657.566406
815.556641	14532.224609
814.335938	14662.765625
813.113281	14697.081055
811.892578	14629.083008
810.669922	14544.743164
809.447266	14452.250000
808.224609	14594.959961
807.001953	14471.819336
805.779297	14651.272461
804.556641	14558.822266
803.332031	14687.109375
802.109375	14621.245117
800.884766	14841.404297
799.662109	14702.004883
798.437500	14695.393555
797.212891	14688.784180
795.988281	14741.378906
794.763672	14877.640625
793.539063	14946.508789
792.312500	14835.797852
791.087891	14800.606445
789.861328	14647.123047
788.636719	14844.461914
787.410156	14943.859375
786.183594	14623.259766
784.957031	14796.039063
783.730469	14838.330078
782.503906	14746.123047
781.277344	15038.988281
780.048828	14700.313477
778.822266	14824.050781
777.593750	14805.210938
776.365234	14674.406250
775.136719	14905.963867
773.908203	14878.977539
772.679688	14933.392578
771.451172	14814.859375
770.222656	15023.857422
768.994141	14872.808594
767.763672	14841.781250
766.535156	14772.136719
765.304688	14905.785156
764.074219	14785.343750
762.843750	14937.231445
761.613281	15030.148438
760.382813	15019.435547
759.152344	14876.714844
757.919922	15056.908203
756.689453	15216.736328
755.457031	14938.049805
754.226563	14907.064453
752.994141	15052.629883
751.761719	15204.231445
750.529297	15108.301758
749.296875	14892.744141
748.064453	15062.542969
746.830078	15236.337891
745.597656	15035.057617
744.363281	14856.140625
743.130859	15191.992188
741.896484	15057.681641
740.662109	15156.373047
739.427734	15064.646484
738.193359	15333.403320
736.958984	15172.837891
735.722656	15271.440430
734.488281	15335.599609
733.251953	15142.737305
732.017578	15386.967773
730.781250	15376.224609
729.544922	15496.951172
728.308594	15275.880859
727.072266	15384.451172
725.835938	15256.465820
724.599609	15492.334961
723.361328	15332.040039
722.125000	15341.520508
720.886719	15530.789063
719.648438	15283.717773
718.412109	15487.065430
717.173828	15332.963867
715.935547	15332.338867
714.695313	15575.939453
713.457031	15518.766602
712.218750	15243.702148
710.978516	15426.668945
709.740234	15534.944336
708.500000	15508.065430
707.259766	15475.146484
706.019531	15593.434570
704.779297	15520.199219
703.539063	15698.895508
702.298828	15698.202148
701.056641	15751.902344
699.816406	15648.474609
698.574219	15804.871094
697.333984	15719.589844
696.091797	15662.521484
694.849609	15816.820313
693.607422	15791.953125
692.365234	15787.216797
691.121094	15746.268555
689.878906	15719.413086
688.636719	15779.044922
687.392578	15866.804688
686.148438	15600.704102
684.904297	15821.126953
683.662109	15639.532227
682.417969	16022.629883
681.171875	16019.864258
679.927734	15886.535156
678.683594	15803.459961
677.437500	15830.850586
676.193359	15956.605469
674.947266	16012.061523
673.701172	15832.686523
672.455078	16118.900391
671.208984	15993.736328
669.962891	15778.349609
668.716797	15671.336914
667.470703	15873.160156
666.222656	16008.753906
664.976563	16190.403320
663.728516	16003.223633
662.480469	16042.539063
661.232422	16167.989258
659.984375	16032.990234
658.736328	16246.520508
657.488281	15817.195313
656.240234	15808.456055
654.990234	16007.900391
653.742188	16039.158203
652.492188	15974.353516
651.242188	16081.631836
649.992188	16024.842773
648.742188	15904.072266
647.492188	16091.291992
646.242188	16104.504883
644.992188	16113.714844
643.740234	16102.934570
642.490234	15980.253906
641.238281	15863.609375
639.986328	15972.731445
638.734375	15953.992188
637.482422	16025.118164
636.230469	16042.313477
634.978516	15871.857422
633.726563	16046.745117
632.472656	16020.023438
631.220703	16119.006836
629.966797	15976.581055
628.712891	16043.624023
627.458984	16170.468750
626.205078	16309.230469
624.951172	16230.658203
623.697266	16176.029297
622.443359	16091.528320
621.187500	16303.924805
619.933594	16480.390625
618.677734	16487.498047
617.421875	16574.255859
616.167969	16629.128906
614.912109	16648.148438
613.654297	16557.691406
612.398438	16791.636719
611.142578	16906.119141
609.884766	16757.974609
608.628906	17011.650391
607.371094	16738.251953
606.113281	17039.562500
604.857422	17139.984375
603.599609	17317.888672
602.339844	17420.214844
601.082031	17385.408203
599.824219	17590.986328
598.564453	17707.113281
597.306641	17636.527344
596.046875	17587.806641
594.787109	17566.892578
593.529297	17925.091797
592.269531	17929.925781
591.007813	18345.476563
589.748047	18229.220703
588.488281	18162.591797
587.226563	18333.960938
585.966797	18366.474609
584.705078	18601.185547
583.443359	18536.517578
582.183594	18658.156250
580.921875	18589.537109
579.658203	18671.500000
578.396484	18828.703125
577.134766	18902.675781
575.871094	18649.916016
574.609375	18801.097656
573.345703	19003.691406
572.082031	18923.216797
570.818359	19060.421875
569.554688	19128.337891
568.291016	19123.042969
567.027344	19038.644531
565.763672	18995.798828
564.498047	19249.507813
563.234375	19210.591797
561.968750	19298.167969
560.703125	19239.496094
559.437500	19163.064453
558.171875	19294.056641
556.906250	19395.378906
555.640625	19236.025391
554.375000	19276.123047
553.107422	19324.099609
551.839844	19277.330078
550.574219	19394.349609
549.306641	19310.099609
548.039063	19462.576172
546.771484	19772.771484
545.503906	19406.527344
544.236328	19541.164063
542.966797	19496.378906
541.699219	19534.382813
540.429688	19590.105469
539.160156	19541.392578
537.892578	19717.250000
536.623047	19705.949219
535.353516	19802.953125
534.082031	19559.330078
532.812500	19790.173828
531.542969	19906.789063
530.271484	19972.203125
529.001953	19876.269531
527.730469	19868.884766
526.458984	19987.369141
525.187500	20121.541016
523.916016	20139.673828
522.644531	20285.566406
521.373047	20439.267578
520.099609	19999.494141
518.828125	20424.310547
517.554688	20373.621094
516.281250	20519.341797
515.007813	20511.851563
513.734375	20488.654297
512.460938	20706.906250
511.187500	20783.775391
509.914063	20684.013672
508.638672	20654.916016
507.365234	20867.099609
506.089844	21073.324219
504.814453	20795.138672
503.541016	21034.632813
502.265625	20878.080078
500.988281	20958.726563
499.712891	21256.849609
498.437500	20955.359375
497.160156	21118.218750
495.884766	21018.582031
494.607422	21148.082031
493.330078	21228.591797
492.052734	21252.306641
490.775391	21209.468750
489.498047	21135.335938
488.220703	21002.535156
486.943359	21059.523438
485.664063	21259.261719
484.386719	21292.716797
483.107422	21202.990234
481.828125	21009.691406
480.548828	21062.716797
479.269531	20805.023438
477.990234	20826.802734
476.710938	20743.089844
475.429688	21040.251953
474.150391	21024.875000
472.869141	20669.791016
471.589844	20744.275391
470.308594	20709.439453
469.027344	20740.960938
467.746094	20934.404297
466.464844	20622.554688
465.181641	20706.730469
463.900391	20765.527344
462.617188	20726.818359
461.335938	20773.892578
460.052734	20594.869141
458.769531	20823.171875
457.486328	20605.234375
456.203125	20700.994141
454.919922	20524.050781
453.634766	20719.101563
452.351563	20842.044922
451.066406	20466.613281
449.783203	20782.238281
448.498047	20833.105469
447.212891	20827.531250
445.927734	20796.671875
444.642578	21010.878906
443.357422	21055.833984
442.070313	21059.943359
440.785156	21200.123047
439.498047	21140.066406
438.212891	21076.144531
436.925781	21307.562500
435.638672	21264.998047
434.351563	21521.548828
433.064453	21611.007813
431.775391	21455.804688
430.488281	21611.242188
429.199219	21601.654297
427.912109	21739.546875
426.623047	21805.603516
425.333984	21805.683594
424.044922	22005.529297
422.755859	22034.660156
421.466797	22315.826172
420.177734	22123.902344
418.886719	22358.437500
417.597656	22424.300781
416.306641	22224.707031
415.015625	22255.699219
413.724609	22668.230469
412.433594	22489.996094
411.142578	22807.470703
409.851563	22503.447266
408.560547	22596.294922
407.267578	22588.482422
405.976563	22387.197266
404.683594	22768.244141
403.390625	22611.478516
402.097656	22464.437500
400.804688	22603.589844
399.511719	22317.417969
398.218750	22412.093750
396.923828	22386.927734
395.630859	22611.005859
394.335938	22363.662109
393.042969	22224.560547
391.748047	22077.785156
390.453125	22255.419922
389.158203	22342.263672
387.861328	22303.623047
386.566406	21994.835938
385.271484	22199.369141
383.974609	21896.492188
382.677734	21942.816406
381.382813	21751.935547
380.085938	21933.228516
378.789063	21777.111328
377.492188	22035.427734
376.193359	21765.652344
374.896484	21765.705078
373.599609	21453.689453
372.300781	21688.767578
371.001953	21627.208984
369.705078	21858.322266
368.406250	21775.580078
367.107422	21808.345703
365.806641	21835.324219
364.507813	22037.376953
363.208984	21896.949219
361.908203	22046.988281
360.609375	22016.214844
359.308594	22104.654297
358.007813	22118.093750
356.707031	22129.603516
355.406250	22039.263672
354.105469	22106.500000
352.802734	22014.271484
351.501953	21960.488281
350.199219	22261.976563
348.898438	22110.248047
347.595703	22085.267578
346.292969	22048.779297
344.990234	22044.923828
343.687500	21931.708984
342.382813	21962.404297
341.080078	21621.005859
339.777344	21887.607422
338.472656	21692.052734
337.167969	21757.269531
335.863281	21843.544922
334.558594	21801.400391
333.253906	21793.753906
331.949219	21715.234375
330.644531	21908.708984
329.337891	21860.832031
328.033203	22069.529297
326.726563	22008.240234
325.419922	21943.144531
324.113281	22094.304688
322.806641	22134.445313
321.500000	21969.886719
320.193359	22042.544922
318.886719	22157.248047
317.578125	22495.603516
316.271484	22313.888672
314.962891	22546.978516
313.654297	22447.486328
312.345703	22514.248047
311.037109	22540.871094
309.728516	22492.998047
308.419922	22370.666016
307.109375	22420.208984
305.800781	22880.148438
304.490234	22643.296875
303.179688	22427.517578
301.869141	22597.208984
300.558594	22576.083984
299.248047	22476.767578
297.937500	22457.576172
296.625000	22264.892578
295.314453	22316.275391
294.001953	22009.328125
292.691406	22133.144531
291.378906	21702.496094
290.066406	21702.503906
288.753906	21603.472656
287.441406	21919.599609
286.126953	21748.216797
284.814453	21660.648438
283.500000	21594.046875
282.187500	21584.552734
280.873047	21481.837891
279.558594	21753.896484
278.244141	21563.697266
276.929688	21495.265625
275.615234	21462.978516
274.298828	21400.289063
272.984375	21470.660156
271.667969	21670.220703
270.351563	21514.429688
269.037109	21702.513672
267.720703	21548.667969
266.404297	21459.439453
265.085938	21489.851563
263.769531	21423.441406
262.453125	21415.888672
261.134766	21330.537109
259.816406	21508.929688
258.500000	21317.365234
257.181641	21368.626953
255.863281	21387.632813
254.544922	21465.404297
253.224609	21541.251953
251.906250	21275.931641
250.585938	21274.093750
249.267578	21240.046875
247.947266	21312.089844
246.626953	21355.697266
245.306641	21427.693359
243.986328	21552.673828
242.666016	21410.708984
241.345703	21490.224609
240.023438	21439.146484
238.703125	21422.138672
237.380859	21770.212891
236.058594	21486.486328
234.736328	21889.261719
233.414063	21664.220703
232.091797	21932.613281
230.769531	21883.404297
229.445313	21667.927734
228.123047	22040.085938
226.798828	21877.544922
225.476563	21958.689453
224.152344	21975.603516
222.828125	22268.150391
221.503906	22049.052734
220.177734	22064.050781
218.853516	21763.927734
217.527344	21994.042969
216.203125	21958.111328
214.876953	21505.400391
213.550781	21803.320313
212.224609	21754.242188
210.898438	21833.357422
209.572266	21673.097656
208.246094	21635.371094
206.917969	21961.261719
205.591797	21791.642578
204.263672	21917.759766
202.935547	21838.589844
201.609375	22137.853516
200.281250	21836.558594
198.951172	22233.580078
197.623047	22056.560547
196.294922	22255.863281
194.964844	22481.429688
193.636719	22445.505859
192.306641	22629.589844
190.976563	22672.611328
189.646484	22734.412109
188.316406	22820.621094
186.986328	22871.097656
185.654297	22977.916016
184.324219	23278.164063
182.992188	22964.199219
181.662109	23453.988281
180.330078	23523.078125
178.998047	23507.677734
177.666016	23664.935547
176.333984	23741.455078
175.000000	23733.525391
173.667969	23624.310547
172.333984	23923.960938
171.001953	24118.503906
169.667969	23716.824219
168.333984	23813.865234
167.000000	23925.865234
165.666016	23968.496094
164.332031	23964.277344
162.996094	23680.974609
161.662109	23806.023438
160.326172	23916.046875
158.992188	24185.158203
157.656250	24248.281250
156.320313	24049.386719
154.984375	24359.492188
153.646484	24319.658203
152.310547	24268.613281
150.974609	24464.439453
149.636719	24604.101563
148.298828	24639.025391
146.960938	25010.373047
145.625000	24927.480469
144.285156	25349.091797
142.947266	25210.123047
141.609375	25577.369141
140.271484	25546.718750
138.931641	25715.859375
137.591797	25716.927734
136.253906	25908.375000
134.914063	26038.171875
133.574219	26225.759766
132.232422	26346.125000
130.892578	26776.060547
129.552734	26562.482422
128.210938	26790.861328
126.871094	26737.669922
125.529297	26831.740234
124.187500	26935.091797
122.845703	26818.552734
121.503906	26594.007813
120.162109	27196.500000
118.818359	26917.962891
117.476563	27015.619141
116.132813	27183.976563
114.789063	27093.566406
113.447266	27005.048828
112.103516	26879.349609
110.759766	27202.007813
109.414063	27569.187500
108.070313	27581.060547
106.726563	27931.308594
105.380859	27554.599609
104.035156	27598.060547
102.689453	27767.867188
101.345703	27681.218750
99.998047	28042.281250
98.652344	28317.779297
97.306641	28234.791016
95.960938	28651.259766
94.613281	28961.771484
93.265625	28795.189453
91.919922	29087.007813
90.572266	29055.900391
89.224609	28818.898438
87.875000	29132.810547
86.527344	29303.826172
85.179688	29584.167969
83.830078	30135.042969
82.482422	29536.654297
81.132813	29218.279297
79.783203	28755.505859
78.433594	29220.925781
77.083984	29467.642578
75.734375	29388.369141
74.382813	29014.753906
73.033203	29020.734375
71.681641	28695.433594
70.330078	28566.388672
68.978516	27947.119141
67.626953	27940.332031
66.275391	27397.214844
64.923828	27020.707031
63.572266	26742.316406
62.218750	26950.160156
60.867188	26557.294922
59.513672	26249.564453
58.160156	24955.402344
56.806641	23816.855469
55.453125	22929.875000
54.099609	22375.572266
52.744141	21889.773438
51.390625	21479.822266
